cov_Fp1_Fp1,cov_Fp2_Fp1,cov_Fp2_Fp2,cov_F7_Fp1,cov_F7_Fp2,cov_F7_F7,cov_F3_Fp1,cov_F3_Fp2,cov_F3_F7,cov_F3_F3,cov_Fz_Fp1,cov_Fz_Fp2,cov_Fz_F7,cov_Fz_F3,cov_Fz_Fz,cov_F4_Fp1,cov_F4_Fp2,cov_F4_F7,cov_F4_F3,cov_F4_Fz,cov_F4_F4,cov_F8_Fp1,cov_F8_Fp2,cov_F8_F7,cov_F8_F3,cov_F8_Fz,cov_F8_F4,cov_F8_F8,cov_T3_Fp1,cov_T3_Fp2,cov_T3_F7,cov_T3_F3,cov_T3_Fz,cov_T3_F4,cov_T3_F8,cov_T3_T3,cov_C3_Fp1,cov_C3_Fp2,cov_C3_F7,cov_C3_F3,cov_C3_Fz,cov_C3_F4,cov_C3_F8,cov_C3_T3,cov_C3_C3,cov_Cz_Fp1,cov_Cz_Fp2,cov_Cz_F7,cov_Cz_F3,cov_Cz_Fz,cov_Cz_F4,cov_Cz_F8,cov_Cz_T3,cov_Cz_C3,cov_Cz_Cz,cov_C4_Fp1,cov_C4_Fp2,cov_C4_F7,cov_C4_F3,cov_C4_Fz,cov_C4_F4,cov_C4_F8,cov_C4_T3,cov_C4_C3,cov_C4_Cz,cov_C4_C4,cov_T4_Fp1,cov_T4_Fp2,cov_T4_F7,cov_T4_F3,cov_T4_Fz,cov_T4_F4,cov_T4_F8,cov_T4_T3,cov_T4_C3,cov_T4_Cz,cov_T4_C4,cov_T4_T4,cov_T5_Fp1,cov_T5_Fp2,cov_T5_F7,cov_T5_F3,cov_T5_Fz,cov_T5_F4,cov_T5_F8,cov_T5_T3,cov_T5_C3,cov_T5_Cz,cov_T5_C4,cov_T5_T4,cov_T5_T5,cov_P3_Fp1,cov_P3_Fp2,cov_P3_F7,cov_P3_F3,cov_P3_Fz,cov_P3_F4,cov_P3_F8,cov_P3_T3,cov_P3_C3,cov_P3_Cz,cov_P3_C4,cov_P3_T4,cov_P3_T5,cov_P3_P3,cov_Pz_Fp1,cov_Pz_Fp2,cov_Pz_F7,cov_Pz_F3,cov_Pz_Fz,cov_Pz_F4,cov_Pz_F8,cov_Pz_T3,cov_Pz_C3,cov_Pz_Cz,cov_Pz_C4,cov_Pz_T4,cov_Pz_T5,cov_Pz_P3,cov_Pz_Pz,cov_P4_Fp1,cov_P4_Fp2,cov_P4_F7,cov_P4_F3,cov_P4_Fz,cov_P4_F4,cov_P4_F8,cov_P4_T3,cov_P4_C3,cov_P4_Cz,cov_P4_C4,cov_P4_T4,cov_P4_T5,cov_P4_P3,cov_P4_Pz,cov_P4_P4,cov_T6_Fp1,cov_T6_Fp2,cov_T6_F7,cov_T6_F3,cov_T6_Fz,cov_T6_F4,cov_T6_F8,cov_T6_T3,cov_T6_C3,cov_T6_Cz,cov_T6_C4,cov_T6_T4,cov_T6_T5,cov_T6_P3,cov_T6_Pz,cov_T6_P4,cov_T6_T6,cov_O1_Fp1,cov_O1_Fp2,cov_O1_F7,cov_O1_F3,cov_O1_Fz,cov_O1_F4,cov_O1_F8,cov_O1_T3,cov_O1_C3,cov_O1_Cz,cov_O1_C4,cov_O1_T4,cov_O1_T5,cov_O1_P3,cov_O1_Pz,cov_O1_P4,cov_O1_T6,cov_O1_O1,cov_O2_Fp1,cov_O2_Fp2,cov_O2_F7,cov_O2_F3,cov_O2_Fz,cov_O2_F4,cov_O2_F8,cov_O2_T3,cov_O2_C3,cov_O2_Cz,cov_O2_C4,cov_O2_T4,cov_O2_T5,cov_O2_P3,cov_O2_Pz,cov_O2_P4,cov_O2_T6,cov_O2_O1,cov_O2_O2
0.19921878349685798,0.17101477214627986,0.3212190645933441,0.3166997403558619,0.13509098432894562,0.34059888403098787,0.04337744573799841,0.14177229061342547,0.1175276893733915,0.04840512331311285,0.06050142350950277,0.07422065289820638,0.09984528243324416,0.05593219994095621,0.14744126186045606,0.2388614407039997,0.04401711689603431,0.17208325292349358,0.1449056844050375,0.03837981336170874,0.1015174147639307,0.1340790916574293,0.4860865137339844,0.18656636062466653,0.09743813001697649,0.12705660809350428,0.054567907688811985,0.3263810732485179,0.18642097789170356,0.17272242264367424,0.09618194369501556,0.07905086102210887,0.31082468423979315,0.08810311995980143,0.17723876264436808,0.12886113987224979,0.16590483859428218,0.08565672347613257,0.3312183148554078,0.24125495977474368,0.22578123304232223,0.09740019321425933,0.03997783156915592,0.07213792820218481,0.06146629613307843,0.3358040073163577,0.17792428481344139,0.12174445310746303,0.06979971792583443,0.30475394300404957,0.08497233638980717,0.11421485269809771,0.44741295916954194,0.16652687035266311,0.18715185597469625,0.18422043869467472,0.251921898640194,0.03995113524641024,0.303238372915906,0.20316273551530228,0.18507251241250813,0.2272367483462631,0.036309814296204806,0.13856522204070845,0.12486860097019485,0.07563571231216705,0.1289005363392777,0.1809754403796928,0.15123995302895024,0.04800633292118629,0.21001203342587899,0.13632307795681028,0.062112809625152005,0.6525220283650986,0.0674457525369856,0.13798693634046652,0.10848654148164294,0.12615978189603538,0.06613021467946643,0.057535905441367635,0.574955192773645,0.03665671196811112,0.03149884579788374,0.023976994893907498,0.12930317943479827,0.09793069693492973,0.13978093384747614,0.1275332711360248,0.03412792920537116,0.05515379753134902,0.18883157582925275,0.04593462093731912,0.03943037523762914,0.05609766795697346,0.13371043912662334,0.0708576658388223,0.0340895755970886,0.02688606381859793,0.0704040812520172,0.13530017911243963,0.154812330380614,0.13548123587238745,0.018396043414909594,0.1997150437867132,0.107489858639578,0.044284809936080353,0.027839669800811963,0.027252788069630583,0.08866784695975127,0.09494237516364781,0.06833033277883996,0.028217908916333516,0.18893655512723745,0.07834502025245282,0.2072755272096531,0.06741770347834619,0.09911966562638148,0.25025394681960494,0.06417737512050296,0.21350016482568634,0.027468197190182526,0.018484546226706693,0.017344130630940594,0.02967000217805758,0.03302449431903175,0.14812106325947635,0.0702574277385049,0.018326418846649612,0.09198880427674899,0.11155164530387293,0.10204848367377439,0.14025790870323393,0.093160147480858,0.06793895955113954,0.043564985732458004,0.07308462630403902,0.028848185187624515,0.1365304826658201,0.06955844638504204,0.026749392447180453,0.02451663846420481,0.08220150079238996,0.738875155475946,0.3420250458532595,0.08469223254505368,0.08422062736892875,0.08260038190286631,0.06417320224385327,0.13484843179799902,0.17951156174098434,0.12112782224332037,0.05582844467235245,0.2749317236753695,0.01791906495574777,0.05146985725562324,0.0684604466411542,0.021772243757496385,0.021288704050651065,0.019775713142031574,0.036629431788623205,0.06918692489215567,0.15688554587687278,0.061461153515831216,0.021153038930541004,0.16020812152996508,0.07409787988799359,0.05679900683849943,0.04833431418959904,0.21639186056046716,0.07681751205421221,0.16268575334891333,0.029598600533570482,0.04113832337022151,0.023948233623743216,0.019048410693104957,0.023653587443886404,0.024666441318207246,0.09048875153626876,0.03942343322308777,0.13623474975303454,0.15460088786204598,0.1089373224126568,0.27370427676201964,0.06412342791295453,0.138260269077907,0.12229390788742774,0.034933737490132254,0.03914510428997441,0.1437605118372352,0.22188350522706674
0.30667354614415004,0.3476221401442539,0.6106835387235696,0.4242698551199462,0.10366321718275624,0.3121039764582386,0.09390201889723994,0.1506616624718144,0.06889098976305325,0.04489655741167018,0.08567971350256422,0.09370457103860906,0.15565445916248363,0.09080887336832369,0.4393934122382606,0.1275926122528097,0.056155687997064725,0.07194318135295913,0.05938589390742041,0.06321074771859501,0.06201693016392607,0.27771058614890604,0.8916805257043905,0.20447132997735382,0.1602806454349314,0.11771860529594444,0.055747334837714095,0.18289230894034372,0.16448918819744818,0.11069431411435436,0.06451207087213545,0.1889174619315862,0.511328128620097,0.07485205693405066,0.07464212494081884,0.46541781967813567,0.31281069004078926,0.057898359623121655,0.22772222625475116,0.14154323487011602,0.09138480970276402,0.18865316835563975,0.030895399145315746,0.056830965544011354,0.13754053547329892,0.26523726636293493,0.10570164310954559,0.07846347849974651,0.056021054521407626,0.07965582020330789,0.0640466001616871,0.1884429452377875,0.7278714470739707,0.1562119419910078,0.09677314932920589,0.12119119066905493,0.14432586649732787,0.042332666155928955,0.3212908063783142,0.16387606245464467,0.11252561944070588,0.13136463559593672,0.03387984602974366,0.3451820270620892,0.11943014641402687,0.11416948600675964,0.039253437377764024,0.21751500295323348,0.06970897065550159,0.04418783774162502,0.4922844740389213,0.3570343967561259,0.06817440769671065,0.8465426779765044,0.045155241169344364,0.2435616709514308,0.11380001042121618,0.4019841522214114,0.13525792860937028,0.04526631777364509,1.3564948880521963,0.07035029964188287,0.03161175628838671,0.023827878696180162,0.23255921245217337,0.12764592340958036,0.45804261521606243,0.16029309670793276,0.04833852585764337,0.06377431967174496,0.08169133581062073,0.0297553305356569,0.030228678129534288,0.06675254263190722,0.39768222709502116,0.07366400988641791,0.030874769091451988,0.018954455936237517,0.24565663629037518,0.10899810486727911,0.35620643835376337,0.16169022692676693,0.020319690695917422,0.20044631193750978,0.2442565997174423,0.027957947530018047,0.027651378625022552,0.025579344016645866,0.18375897361443305,0.1829476988520688,0.13819385420939168,0.04499286358843069,0.4786995797178985,0.09442173280294319,0.14870699066992232,0.07160257037139485,0.29541690992907416,0.10617631633714081,0.04024565988858937,0.31965555680708,0.016275864388072037,0.01805661973728736,0.022887557093048946,0.033038668449542286,0.04719657912311809,0.16531370495389125,0.11767665914468278,0.016660426273263237,0.08753314229170958,0.08463762587555121,0.055483395033610744,0.21032712334859163,0.08426766333168162,0.09275269126899016,0.044994394635241235,0.07666545989526113,0.04029802133395963,0.09346840329633636,0.09377484791445671,0.03200905035084136,0.01918964759358981,0.07032914617063465,1.191586752687997,0.23388900107238422,0.13668146108730558,0.15514421995704766,0.3811404687948819,0.06301144951812555,0.3913773153741945,0.22858800660818512,0.10811033521107029,0.07407669827788128,0.15026019473171742,0.0163943198761976,0.03456150844937151,0.09750526089999562,0.020029579218582155,0.021633671324673337,0.01501396004651837,0.024835946803517823,0.12754326903176472,0.30548843738044024,0.0750903830609642,0.025847554396842998,0.2746201790469317,0.08503991333574658,0.05779379516729677,0.10929739717084032,0.11639231904936151,0.08779657692021244,0.14535308594736213,0.023896296931470416,0.0365271627735437,0.03299123550756054,0.014937318580397476,0.034052355825714774,0.03774174158811521,0.14860948279661607,0.0984773606673996,0.07025688936211863,0.10547927021706573,0.3794506749569939,0.09576341731391308,0.21510730284452914,0.08856297536355615,0.1793907167825354,0.03362364035971849,0.05677305938942724,0.3303951682114533,0.27395118770134214
0.1339595363379026,0.2290892663665506,0.22126882303370843,0.2881169445488029,0.12119214461955581,0.3039097409148186,0.03872445943285871,0.14748479846337506,0.11139915453045438,0.047513332065380415,0.062083701058649556,0.04161089973242019,0.10175657796189572,0.12875103049918335,0.11709610886192567,0.12695001068827366,0.05557291224427372,0.057143685987302746,0.1647377878217214,0.0763782989554668,0.0889067317385042,0.1437124802786331,0.4354787999229114,0.11167306163901217,0.11552613854238211,0.11169970071876706,0.10805386011273903,0.23104964473207007,0.4569673040868622,0.2571363689927997,0.056031035641908644,0.19810826725806324,0.12092745965154798,0.04247281611801328,0.07834935213232125,0.07052216821430436,0.14764493519832642,0.04637384971178251,0.2814964640370004,0.21130093335379013,0.13265714393051076,0.12938525809005486,0.029836392922314724,0.07921927034004783,0.06212734962501181,0.18634969641482155,0.11614568744921729,0.08117377501685384,0.1002049135804191,0.2058569565702425,0.12301293494279503,0.09066986127467508,0.39265108495305273,0.06366871492148929,0.08221395954863941,0.14878328414540565,0.3413069229208619,0.0335073002608185,0.09610738502727499,0.09437087308620942,0.06323526447977088,0.35878524108224324,0.04117400727238045,0.1926215583470336,0.09423691066120814,0.07792100769299784,0.09655927628710494,0.5015776493759322,0.17175748216790968,0.02922046856115894,0.09288548611179502,0.08604351938637872,0.11677651392511236,0.32193590782358567,0.03634705691414196,0.09640487163684502,0.17602951071179393,0.11237366295885177,0.07390122946657436,0.13539202005750012,0.4390623905248492,0.09404929129358015,0.042774538817461835,0.05125946387204785,0.1688961687972034,0.1619549247365116,0.22495482907163217,0.0614511854059776,0.04066147761090209,0.04102987091424725,0.14819154091799716,0.03878279779520152,0.044687493116165954,0.14904853905649681,0.43961077417879046,0.06812786714112302,0.03839353764904322,0.03000559619173167,0.2517207042895459,0.0787636532008196,0.21411758079852342,0.13207832683879556,0.03285133601365301,0.16893733675779793,0.15375809704775123,0.04556986778772424,0.029722556660491027,0.024171084452169134,0.1365397996215926,0.13480882303250966,0.14851293132242407,0.030968818695577757,0.4511029173894759,0.09815394067786443,0.1223254257820314,0.10555894890162311,0.14399544643512813,0.07551779126665874,0.03791684006212799,0.10025998795089801,0.025313518367210994,0.019221920444320622,0.025560181865962057,0.027754524254403754,0.034938112968830586,0.1473455284839493,0.06928597544483776,0.019700456493429386,0.1316411797854744,0.3647753732226494,0.09158582522930322,0.10817660168839881,0.17678572766235873,0.10519388811284734,0.053563116071857236,0.1023686839562518,0.07501909903604087,0.10880291734353595,0.06086084794356272,0.032956330668220624,0.035734426842860885,0.09903608732750063,0.5210756587087605,0.12985858607861764,0.06645878934834085,0.11823941360039313,0.2990768092645423,0.0788951303281491,0.7727232815477373,0.16010143436968344,0.10426642828053506,0.0735266417882642,0.30924426520148235,0.02875145270543774,0.07896693437150766,0.065395046818966,0.01928039797081659,0.026213761253279556,0.025035823070060786,0.03875997156966883,0.20966927644129615,0.08189480581482506,0.05698724308737632,0.025271845206433805,0.10073230316400693,0.05841575354967493,0.06814570333991556,0.06812717785099426,0.10350669713193852,0.16983825210991157,0.09783167406138951,0.035695458756807984,0.03856475750338624,0.04525915883127163,0.016617351356199135,0.024631302515617643,0.030543330435778483,0.1972481737837942,0.07662339975115491,0.14462034422653772,0.2031209917593874,0.12882780149944706,0.1102213069409777,0.09015290337513099,0.1620233732779801,0.1696072951414996,0.033933601445450864,0.058779372801167316,0.24934744166549935,0.3290238646193484
0.10885401230074632,0.15038922278916056,0.13697598336813405,0.2586899061279785,0.09496208126856046,0.19426381390336792,0.05393437001033242,0.18944178219367502,0.06817388712723016,0.04246098753004135,0.052728213025133,0.04533800885864987,0.09332481697539151,0.08324474664210012,0.40397798816544744,0.21116971885274985,0.04583553567126279,0.05102935745704202,0.12989086968753732,0.04876365229936861,0.07902181031357967,0.11994977260149065,0.496232873579573,0.11458794572652413,0.07713769191796202,0.10907882878262956,0.057345891223035836,0.16613548610718593,0.2200840356085123,0.13852874930977693,0.05099757095339078,0.08157571064439123,0.22155749952322545,0.043091288106462636,0.09917553365530048,0.29080254750109275,0.07894494642319577,0.03660209540126874,0.2985610744728486,0.12232169354066709,0.12965000236442184,0.07905770855529981,0.052424386885075926,0.17201167317826288,0.08899368301418667,0.26591720868977803,0.1643427197306152,0.15891667515690552,0.06312877229241234,0.15559451345178313,0.0710574615016512,0.22247792215286846,0.4536267444780539,0.08061288837190224,0.25969852226712486,0.1058491593402172,0.12263596257147057,0.03196327130655607,0.06731150575987001,0.0864922078613182,0.06922921789396921,0.1522687639757642,0.025392804935181833,0.15186249038449248,0.0667406407202606,0.09549708438685017,0.0836117629069754,0.18379048566666217,0.08536208603550766,0.028559083063903694,0.24700240079815597,0.0859901186858015,0.16196691562956625,0.47291523463272805,0.06511625575014442,0.08895277978266027,0.07621853652851816,0.09337426925383126,0.06787131636552325,0.03726728546283658,0.8448545545748744,0.12706886644468104,0.02853671931809736,0.04344711012360677,0.1380296605819525,0.17496270488679525,0.17170102621194844,0.15663716495628927,0.07444817802588205,0.04017766370163424,0.20912100862824817,0.02984123162831451,0.03134325851904328,0.07921478137895398,0.19339033227360938,0.054269485836680516,0.02087797481548546,0.02309259426181652,0.07969234904971598,0.09779524477530123,0.07591489884276964,0.11584784988683294,0.015313492394626654,0.14548231362794398,0.21653240295964082,0.025280862914991115,0.02185839463709787,0.025437644459068817,0.19255153802383926,0.13048905970346847,0.07751343627287753,0.031233177711302806,0.09746397086835328,0.07799561062563908,0.15210008761218474,0.07138043599889675,0.07164049893440827,0.10574590489085994,0.045596356019870325,0.12117853340852337,0.017485326452877478,0.013612782982857317,0.01760265985844585,0.026508652239142356,0.03949357178788587,0.26245559871235624,0.06687977492674187,0.01459128688630357,0.10935459066356808,0.11111553561471281,0.05360894187623294,0.09836787589035087,0.09714318270598706,0.14952806505381241,0.031079581886142127,0.07283807067219884,0.02913169535067667,0.05602564195453273,0.05167718692990409,0.030290067629771805,0.025117306997366036,0.0784675066387311,0.9706981963845619,0.14837638719262627,0.10779086887902292,0.10996159176239609,0.06155440240593325,0.07939120992673909,0.1893187149156123,0.18877753629865124,0.06580582015230238,0.048730255997583884,0.1374462257419738,0.017235128001288128,0.03256945734858633,0.06745387192967581,0.028061356082460222,0.019391229078580364,0.012891411956620823,0.02221714862363319,0.09936170707876033,0.09472254203640945,0.0544391364574397,0.02027052451421641,0.10209752966130572,0.035118371790508515,0.041403776321462915,0.0402796142040495,0.16298184425161155,0.0862161491020549,0.21186550851935304,0.02115170139831628,0.037934686383475226,0.02570531477047,0.012105810433445944,0.019304408272134775,0.025984767109911985,0.09923434125521326,0.05776457619661149,0.06123961854693317,0.052623194132465384,0.08178222783379704,0.30054582234594035,0.061589347759230355,0.15128883178979388,0.08741442579802088,0.028798012666921786,0.03381150571100885,0.15844422869490093,0.4300949393737864
0.15786298417706182,0.41484610828639096,0.2631438610109972,0.47790191037084895,0.10628311720736353,0.3243559074060756,0.03223778273062963,0.0864016967396807,0.07849757254279717,0.06023725466596949,0.07400110649097781,0.04309984655949722,0.32392349036713436,0.06957833665172956,0.6213230052415444,0.06873679662093125,0.06113293462836299,0.060962963242204744,0.07405463525139011,0.054305757854169356,0.05816127971483602,0.17931076418601483,0.9230481103920036,0.13307772960924905,0.1607383754864125,0.11666465346269597,0.054192540624047485,0.21147986909367475,0.3581054643249099,0.12009353191358492,0.10413896105121277,0.09965164707130489,0.41464982780770776,0.0690426562497816,0.1212882466487914,0.4096102697231339,0.14044370147234778,0.05811666768403073,0.17068808269323532,0.12112971653556248,0.09760689610283868,0.18688075270656623,0.036619570362476074,0.14384596194438806,0.085970030976873,0.2461282848255749,0.12315647403520348,0.06925266373704154,0.09791464727238941,0.08903976954256561,0.07046981962317161,0.16232323656564374,0.788934987304477,0.24410959522491749,0.08911713448669054,0.1289500811626772,0.15636456007970892,0.03049883174067544,0.31240152352371814,0.21719636090134767,0.10213848722064825,0.1407762725849718,0.03357213948340611,0.3491125983715051,0.2035275081008328,0.14485823796691774,0.05657357146702641,0.4219442071622395,0.10715834694690925,0.04446035240827298,0.4749015963617786,0.2546630734099018,0.160286440156551,0.8228351715985461,0.04307860655657948,0.3302363685527243,0.22752730418247794,0.2744173421192777,0.09553914237975172,0.08896697556555766,1.1832917166101384,0.04431815665835284,0.032012093905791655,0.029300578360695727,0.19258808363500846,0.10536246587263891,0.44210424237217577,0.16376057834644347,0.05722579295284804,0.0560042876041193,0.09696283675757705,0.034358647203185225,0.03787193848582721,0.07698165357556401,0.10246274651089558,0.07265165156939275,0.030695446735869488,0.024754346359404975,0.2707868820089449,0.08619816172694307,0.36981912590224253,0.18235364996766787,0.020353285126588943,0.17495539942257374,0.2638704794792383,0.033506111033799156,0.030440899241318875,0.02484543076582327,0.13126419316394022,0.10069093906219614,0.1125456170431418,0.03925610381163985,0.4290967877500353,0.11955420738492685,0.07239339270116597,0.10406427102768452,0.2965403719138789,0.1597235494014132,0.0481927172381338,0.2531255912601066,0.019340789160178812,0.018488342561551057,0.025528125154248484,0.03727382340372167,0.03266872734545265,0.10102124786913054,0.07760841561175745,0.01762958235388663,0.07558772937277572,0.10861227109627593,0.09392505329219632,0.1746423719297711,0.09801205008866541,0.22868710956636576,0.06498243262602213,0.05820865519032123,0.03263958312759424,0.07513714017232329,0.09325233747995022,0.029901902539098642,0.022299376790713126,0.06366154514522442,1.0167254640250492,0.24166255358616395,0.12054444738546483,0.13467570028549486,0.24946434828521893,0.07518224427803767,0.22052205251623658,0.2232913540581653,0.08370662781815907,0.04487538388294611,0.16793923317431886,0.019546133748318855,0.03785922318673588,0.0571203958302792,0.021898137636406526,0.02878732719640551,0.01708239759130353,0.03652528707065135,0.10068663602681052,0.2024030631435636,0.07815788970193514,0.0253414625744923,0.27685218214062274,0.07512897641151944,0.04138293919384946,0.10273608626617382,0.20008099751036001,0.10417035936768217,0.11791293232558057,0.030187069618902957,0.037977490568190685,0.03198626245768842,0.013592262677642788,0.03320639727006752,0.028662733264249302,0.08461389158651278,0.061393871945813874,0.07432164864049362,0.11922092872748889,0.3275483640535941,0.22136908516515702,0.21569958639433212,0.13597136560576029,0.2063773521413299,0.040300915348742,0.057859350693432156,0.19321390619473774,0.22881457227955165
0.37770858224787845,0.3484594656471442,0.15116025914268028,0.34974107668475746,0.11428993977780841,0.1081634712539976,0.08032591827164993,0.06158618791052511,0.10826212975583593,0.06945043298681126,0.20239883150431506,0.11207696806974016,0.2839428688708639,0.09125213676490641,0.41539883462861,0.09246848685709018,0.07454732520692586,0.11668691718200806,0.10984880516959647,0.055036894961446495,0.10307414482742028,0.10257154809101694,0.6491509536555427,0.1101266674595426,0.12117520917427306,0.09848422519592259,0.05381933755694032,0.1778089187320114,0.2611322084785603,0.21712371307681974,0.053428730059087964,0.1288971701105248,0.09839265671053372,0.05905339382242812,0.06639853527124011,0.14689978833861927,0.2787969947022182,0.06490200136005755,0.2559317294006046,0.2576297633992414,0.21545633607105222,0.08594572199602234,0.03028720445264465,0.05457000574398946,0.08340582679900628,0.22343993605610263,0.35414595104642044,0.10432449247514841,0.2858038516009617,0.38579722267557165,0.14952588385138796,0.17532568141785213,0.24589057380272739,0.07879813119767444,0.15778855302058026,0.07174126616756903,0.47396870327434687,0.03253679280796693,0.08242056391688275,0.35205595642151555,0.11812835571388748,0.19066929625459225,0.05000308626660319,0.17337205253968885,0.06750450061313704,0.10298156504084684,0.10127840576370772,0.10967787314967314,0.0953431513087977,0.029850445348468972,0.1041135473489798,0.08902334389025102,0.23888898913925916,0.4183768302536382,0.0641557543195669,0.1007623619986759,0.09343783957929776,0.4068693179770074,0.07482967733631718,0.09227691092829245,0.7429459029843959,0.06164257733602262,0.03521096980932946,0.02719041681442373,0.17674921392487025,0.29693270642634834,0.2777844077340789,0.05982868241000383,0.044549562176820205,0.06414987972394931,0.19295610727897652,0.031362742778007255,0.02230696832937955,0.05335590712139591,0.30403478707095194,0.04578060006393972,0.022818727724996612,0.030679480700739007,0.08703355718491423,0.2815651890483292,0.08411999943082771,0.05857034092237263,0.01968301141466555,0.1824732956469342,0.12301952137546569,0.02951807932340797,0.018900148178946835,0.02729236151526715,0.11601653042803373,0.1977920224104302,0.12133109245572973,0.05283079616070675,0.16782846679844918,0.07781426543680778,0.2588965431435509,0.09275869967864274,0.100423998373036,0.1322257937049381,0.046566215434432054,0.2140095611182657,0.019777815782115498,0.022669687262727577,0.017105572841985047,0.03289030462125075,0.05823012682876462,0.5128508340738092,0.1626234710107557,0.017110576459589195,0.050924024287501854,0.13983137606097584,0.09287945573673018,0.0694462068903792,0.07661913390626775,0.07940364971255241,0.03351355740102394,0.07517228969261987,0.03534788656360342,0.056432834267047725,0.10355940788496538,0.03747992936266062,0.023384496575280616,0.07302090756685546,0.8073371148312273,0.2241151167786641,0.0871320987460502,0.0592771675444087,0.06791622022091277,0.20907832595437897,0.20520048836594187,0.05616701763365812,0.3077916250487187,0.12190634623795761,0.3168520196872954,0.014749896520037805,0.03527000201560405,0.060003184380955886,0.024616796483562773,0.01850615771275741,0.015700693715292653,0.04029810986071102,0.1057271165362805,0.5023074350373629,0.11343557890069529,0.022771715406391897,0.05897360183740754,0.059415719249922054,0.06348684100538915,0.052911359096035525,0.14950926532580952,0.23045876580219435,0.09287739707951102,0.027317590110635774,0.03765286873537939,0.029740370530309826,0.01279564000038767,0.02116229568231262,0.051411691022217654,0.17053480586717223,0.09072947131890041,0.05791932764802025,0.062064820803868076,0.4808143730685743,0.10653580464680402,0.09715808146397412,0.12073784643939757,0.0674725567714024,0.03434615663712396,0.07682965510865056,0.3629021972261691,0.1480861152431663
0.139870724719722,0.14398540409645416,0.29085971075684325,0.17354549655413903,0.08069643688872125,0.2230880317869036,0.04663696753457056,0.13114773897933513,0.11544858881796448,0.049898393668021124,0.05049732342450926,0.07437281057165149,0.3061017488707961,0.08863102271005713,0.2989072089077936,0.10424057900379934,0.04220084720995985,0.05250223593306656,0.12163665524773816,0.06258181255173047,0.06966311088342343,0.17581390632262367,0.5062898143774885,0.13697798826615964,0.12305208946889787,0.12957461358903463,0.05308603678746755,0.10190716030036966,0.14994341541332668,0.2192442870920941,0.10113153407447244,0.2883170435298191,0.5664731338308335,0.0865379155784124,0.07070617590256528,0.2836575572284428,0.17419856290710445,0.03278164848878304,0.5661092312045538,0.09218158413037628,0.1398450263726428,0.07501973230682674,0.026193504225755847,0.1724839915981274,0.13069556062440293,0.16685774695040878,0.12824379753757323,0.29308164670216924,0.09720884958397358,0.0805940607768284,0.047915791348272015,0.24686854409830414,0.7352148450545621,0.11688665137018203,0.08242210810842218,0.038518711600842616,0.3201972875071495,0.03874522471437581,0.09425614990209313,0.16952060603259317,0.07094231833557162,0.15174545510904544,0.03974419488928068,0.2392312222951951,0.107297874156671,0.10283371812363394,0.09040113349599187,0.07989219953908765,0.0693597293910866,0.06495845905315943,0.4388043511136762,0.4438964028081233,0.09372121583925704,0.4841933385532612,0.033500208725565986,0.32558600445919617,0.2601769261922339,0.2308080736442408,0.06353019366153938,0.04637350489004724,0.7622535761955088,0.0611027883629993,0.029316005095871178,0.02473019853278035,0.1805618559466107,0.34635637342428854,0.05736249865692766,0.07323617021657694,0.0332185712678926,0.08175681438516721,0.14461538727838422,0.03490953639198498,0.027786741448746932,0.22133513983843942,0.14980599794509772,0.04096906571077303,0.029773947869648158,0.03865053238032842,0.10160508975992598,0.10704781588270737,0.10668409692285681,0.18143215023247716,0.02059363333849739,0.12166383947170215,0.14768282604402969,0.024217785510901903,0.020620095407072978,0.02067994785090219,0.07824203190667006,0.2101012947047906,0.1295192758179023,0.043779463860243534,0.09106992227689356,0.2750619681497396,0.1620547265596388,0.1006969492618309,0.09049370421706328,0.11080581582339968,0.03788089923615053,0.11817154702392349,0.015284992952222314,0.017022594988428803,0.017112859023922542,0.029161798327008766,0.043570077060684435,0.32665988459189177,0.10495401179497767,0.016135878704080793,0.13652531491415193,0.11298867921417483,0.055028952550377375,0.0902983952762819,0.11878944880621352,0.19467366966375527,0.03898873878997681,0.05723364608860001,0.03745191533407067,0.06686967680143967,0.10000475396419146,0.027810766333828462,0.017795867264189642,0.08054285615526018,0.5071957103590712,0.31485631532381914,0.06427248426425412,0.08318603140028517,0.08610776781501321,0.09919449800853872,0.185913359627381,0.09158684039114619,0.0859723683802756,0.04335139530799497,0.11140944610173795,0.014808143640078895,0.03324034178507518,0.07032534027508978,0.018707094364859355,0.0235505590699591,0.012000407982428329,0.04211196902421868,0.17049086203136377,0.10067763149721272,0.10183185857874057,0.02436733058801262,0.08019026287353238,0.04265302741601541,0.05132499458296276,0.07659047267923742,0.2759137814399491,0.08711243268997379,0.0847216177743988,0.02876999901517748,0.041141770722433434,0.05657383492576627,0.014945819691990376,0.019255014496567444,0.026631029160654053,0.16685511761008065,0.08813842261918625,0.049921446812344346,0.08798251949395071,0.11310101338389948,0.386589059092028,0.05876866816167299,0.10094267883227025,0.09392267920028542,0.031445921354684776,0.03960632209690355,0.2198754133759872,0.13620054143210378
0.09664828459345912,0.10127010867522118,0.10268306426723325,0.07259846187565874,0.2196518450430638,0.5761551579311537,0.04774240976357837,0.10178867888553465,0.11258315611411818,0.050785039298681625,0.12052406836356973,0.07268380151322433,0.13835229559903928,0.08287005217970504,0.5137277650441565,0.09531588040451643,0.07061321102345679,0.06185031040494249,0.13194849101688869,0.0441115749433445,0.06330363413371583,0.2451905200877441,0.1153049014325156,0.18801367115854437,0.212120285143379,0.16664482658124027,0.04913958224388104,0.1653561409124585,0.28148284468210616,0.15161945352774503,0.04016358002837848,0.13944260844862424,0.3723048843668937,0.05312365969070112,0.1411165254767496,0.07869250825053138,0.2075607816776757,0.040231405462398846,0.15789880481590765,0.0600174537567905,0.1057781070036428,0.0887140472154597,0.032117837629732686,0.29003708835548153,0.07875958992572138,0.06703305512294254,0.21636924385780115,0.05826468484205495,0.06117612288913332,0.10390155677694549,0.05619931596406819,0.08401438768356828,0.9875706467565274,0.11903560782055869,0.11059035254386593,0.08451940490043261,0.29375626792010345,0.03214481332983068,0.2851397191018248,0.09989836423828467,0.06688804856971502,0.15113951220790992,0.03934634581307922,0.18274081920952376,0.10971758155274425,0.09677674407532372,0.04762348872761611,0.3044365675767224,0.07882076480465494,0.04068307571884213,0.17349070109244968,0.07883201643934928,0.05145646087821107,0.41167956493173674,0.033251941473703424,0.19840657908357853,0.20188486946359677,0.10886293314820678,0.09506446888687739,0.03700439902518361,0.18469205440993028,0.10540683934569373,0.033787469851561704,0.031732663709307406,0.06464302862294327,0.12155477258344564,0.1622328627172149,0.1773729029795449,0.06374113613026337,0.06646895126596443,0.3408509785078202,0.041621761007275195,0.04263478795806396,0.16656506423643888,0.09514783400186691,0.11218249790309258,0.03630023451515121,0.03379241854638256,0.20575779245176024,0.09878257162523374,0.18298088889423234,0.08436330259097488,0.019471691753581353,0.058056502853061985,0.2705989941347706,0.02538731773674242,0.023583786570343396,0.02537215478195967,0.13755279106199086,0.07465713386838804,0.09304947607618011,0.024458829528839682,0.2659463662689006,0.09485071473890058,0.12326884623051876,0.10438409743272792,0.16525734918873045,0.11914771579651155,0.04654295191057088,0.19046087147541865,0.02551755854923244,0.01718875279428726,0.01685883373385106,0.02601935503550203,0.03707170329435074,0.12043643626591524,0.22481410216790929,0.018372867799252443,0.07385914117423387,0.10947705398580017,0.04571914999851574,0.07871780028664355,0.10074037206264651,0.14127614723129203,0.026574419416745428,0.06178838401005248,0.03366762464810033,0.14198245716429622,0.06323332952117214,0.025668046946008827,0.028227829272597225,0.22203908159696623,0.33607950847300844,0.32199140158511613,0.07089090263291296,0.17281626787244486,0.17627365666450293,0.043806754226380515,0.5154032137906164,0.08418359018550292,0.26762517293338933,0.08542042265316101,0.204825355954792,0.024787718904568237,0.07414562729614028,0.195599681087278,0.0212197565572922,0.03937138354409652,0.02189840314877634,0.021303299121905636,0.12809408052828605,0.1506870114487709,0.06569273201291455,0.021489589809325593,0.09360128100501146,0.05354058450257963,0.11272742935728487,0.0425927543061251,0.18321719701702546,0.18209554054663182,0.40928204576748195,0.04229936180738551,0.03847407105703052,0.035842588778221295,0.014344613828702063,0.05416495357793176,0.026495733149944325,0.49121295678095706,0.06483856773295904,0.1069186399126846,0.04392478596701049,0.48006640251091065,0.46587614014381806,0.24141072542555483,0.07843415196133482,0.055309304294516574,0.08456684450686791,0.04309012400302327,0.09579502844906282,0.5683819535084251
0.1087015379837023,0.15239723742353256,0.29888666763555666,0.1484060839381761,0.24590284944101384,0.18945648856018377,0.04864269327581988,0.11255728150435669,0.09135928796610694,0.05166178880440933,0.04492973064625065,0.03676141315895797,0.11088891316870457,0.06362339884300022,0.29096951054435,0.17590114111773478,0.04034510577465121,0.12672208611518568,0.053351505212657344,0.04071859699550434,0.10618049460364444,0.11850661720680747,0.5104648189502068,0.14017710343218676,0.07492530392371426,0.1081284262293101,0.08998735122530535,0.08689332250981623,0.4853799292515091,0.1274428676276972,0.11069013381112904,0.07235736394971339,0.12221721698938727,0.048656380552084245,0.11238628996364801,0.09805964660663316,0.07353964140549658,0.040129207867026645,0.14158138964348396,0.09044071530093743,0.08013017903523555,0.14700581858044537,0.03208245372276381,0.15094102985540508,0.10353371356306627,0.20912400208177706,0.11970705877378773,0.06846417870997387,0.056599135335916345,0.09798038967973915,0.057845734575072576,0.2095736092694236,0.7345985383358765,0.18001456433735183,0.09187573482526463,0.11534692434152227,0.24702678957777227,0.030007939350916894,0.07347848908725076,0.09759568107833744,0.06461747709734053,0.5810605794357658,0.032167587139610515,0.12167880635414158,0.07439592684531965,0.07069699823972765,0.08789903851932356,0.4439169698820787,0.0661271745592442,0.03280432468918308,0.08399761485195367,0.07600696178804456,0.049226764549812646,0.15859353007407528,0.04207644879277909,0.07059067091332392,0.079567172850427,0.12345573995324031,0.05554978159487012,0.07818291869433844,0.26393903699408305,0.04386915682281786,0.03059196412752262,0.03649305422232151,0.22724675197670968,0.14842032630592886,0.15418463168458765,0.11877163629435092,0.03189662823994723,0.07842468265762424,0.12013628255235353,0.030142391553810474,0.02873576967304853,0.05693950469776473,0.08975805366790462,0.08625181799664829,0.03339041180284492,0.02171308466770872,0.20947026502586424,0.1081825865236367,0.23113855767135993,0.08451025779658568,0.015942557066832227,0.19768779537837614,0.1387714068244739,0.021697532660149305,0.025278477516528064,0.020337524547958535,0.09597667079605746,0.08764440949634814,0.07025435057491274,0.03509920914243643,0.31697586851287757,0.18932904381810453,0.06106624713582404,0.061537537894980364,0.10717002764545985,0.25831116964010975,0.046751678297186794,0.08245074473226728,0.017003432357266764,0.020254318155723854,0.01715863410008123,0.021775962931066123,0.030801106117767686,0.13071822559977994,0.1537373212396448,0.018807167152426814,0.05637192917752148,0.08286012267452712,0.04393564956434717,0.08968912278785146,0.11120424978193413,0.13458576857454976,0.037190391164636113,0.057137916749977674,0.056005815034783385,0.08885083231581235,0.05893555965144286,0.01974758119566308,0.03098969973365812,0.04490229066591822,0.4203534044226132,0.11253223211362706,0.06648146636527866,0.09258048749028645,0.10529399775467099,0.06221670252956037,0.39577288411781664,0.19800720226863408,0.07147255815489002,0.0577016220112171,0.0742539777436853,0.015103943495446201,0.033304000687883695,0.08310182786279999,0.02484162833305215,0.024260878009133607,0.012038661095604447,0.03480010309908937,0.16766624057065543,0.18263641634786174,0.09429543628059295,0.028082238166254693,0.069756059811592,0.05100086476583009,0.05361193824058077,0.05345101857399053,0.11110879748879185,0.07758493819107132,0.08636106061576967,0.026710594987134954,0.03611487818210781,0.03380689634405969,0.014682691476032666,0.024158983187053597,0.02239451687387547,0.08672842032555411,0.04840193120769298,0.08359478912725922,0.05417397626150645,0.07650140720775886,0.0996218753270057,0.0696803899621934,0.08208018270091817,0.07077530882157089,0.02955552401523916,0.04190213302239946,0.1341623534038861,0.17089404915784953
0.09241323183611118,0.42607973665407084,0.5764289079112661,0.22964270165569745,0.07430114947459653,0.22102039602639212,0.0396038037972925,0.05725278315226357,0.09534286980580872,0.10398820271680945,0.12029600134350073,0.05767051926196266,0.10254370084198744,0.09219772861113149,0.16700088283068884,0.05568463873659621,0.048855218896821144,0.15037217345111753,0.050284387466482595,0.0590785821499066,0.12468078378848588,0.13331130435389318,0.36268692684810216,0.1561935613544405,0.20691770557784248,0.12451620113041076,0.04873419396124115,0.08187202247042868,0.0834894926362177,0.07268302903519769,0.06093683541609433,0.1492110951218632,0.2087783660628662,0.045194125648377007,0.052424162145770094,0.199158828690559,0.23593621404660506,0.0396864908038968,0.1074605368220733,0.1690812008048938,0.1213992845106162,0.18191112655989425,0.03289865735366747,0.0521521360232168,0.1755326197133685,0.2374904119736452,0.07679774347427358,0.10157095994064658,0.27230027445268395,0.1686436204026743,0.1698476683010333,0.23655187425683188,0.1677189042254579,0.1476076711605735,0.08337605624533417,0.11803877662809027,0.10534226327807795,0.03128286808119975,0.22407160358167827,0.09779378753590445,0.11178821702625452,0.11823866755217276,0.030483659333243776,0.3285526509244028,0.06585641547869586,0.07683525223045334,0.07677559634817648,0.08052604409507107,0.05557250523971941,0.027133981944038633,0.14111687965265526,0.16082481804412743,0.04823080606622415,0.2802448549752694,0.054936472013931925,0.10202767016326494,0.0717660164162919,0.17186284928060427,0.07563762304810667,0.032624309316140826,0.16921987811395073,0.043028501959813524,0.02862288952656366,0.025098458525675958,0.08063982590807164,0.08893743734800261,0.17219300460502365,0.09179841908505554,0.04260573530841115,0.049014117951572636,0.4758902188775372,0.06006677586577944,0.031085602690007607,0.08381421521091806,0.2523197114493718,0.0990534861157423,0.030075802341677668,0.03130901211048659,0.14534423486389225,0.10750620113200693,0.0695607087006092,0.1238521780932833,0.022404113968148807,0.13530929643903997,0.071906211059628,0.07242383365148282,0.02629446064477021,0.024289417530189143,0.09574640563393012,0.1983194113700916,0.08495046915822813,0.06032937803811709,0.08002577570787844,0.07760975216881602,0.07386448791394429,0.1605423597734492,0.05013141691001784,0.31224382884595386,0.08023236211156055,0.1208648542051093,0.024470333266972556,0.02221077792357042,0.019739251989913015,0.03003654938689602,0.031337246491612264,0.11673579162364464,0.07905049631351574,0.021617488159448885,0.0680908740732705,0.18105152043489456,0.05669481007693302,0.07443252675763813,0.07024945307473593,0.11267825234120465,0.04801730026136819,0.09047169151299152,0.04359571961415007,0.13526537745085968,0.06418975144523618,0.04150356331673393,0.03386487541466094,0.09033853737736773,0.24447529548394953,0.14191595362630308,0.09883415117250634,0.1278042502266595,0.21095385012273493,0.1059615553666894,0.5731270414246815,0.10038140855695613,0.09225101618514632,0.07196473252768601,0.39491041498121104,0.02680825320704398,0.049995498719889474,0.11570066177406935,0.022174221134049193,0.03177809395008909,0.01978841129118019,0.02462948550588851,0.1486385897747679,0.20127547821579705,0.08589769547334682,0.029146864159787417,0.06437835718049088,0.07086003130498503,0.07790336960764299,0.11775580198874164,0.18581466242286632,0.14731153364214425,0.32147608295564295,0.0351427139735661,0.03432252737041223,0.02921174495920524,0.014629788999909578,0.028266574936442062,0.031080910554200987,0.1864769467440865,0.07368545264986827,0.1311522638374912,0.09292200979948396,0.15019198063833797,0.3689965394043796,0.105236941095454,0.14974059147474575,0.06474954837919777,0.03146378601581474,0.0469325773661926,0.1128832421141688,0.3860147626776732
0.2259210449524851,0.11159808937220658,0.10689920199204195,0.28802428242569506,0.24839895601995332,0.10762930108978898,0.04881951373372211,0.27484666007540304,0.09233679903834942,0.04407348988908956,0.05333662317303576,0.03883216594241359,0.1883414164311425,0.07753918697836677,0.33873667824810466,0.33611233956480874,0.05763811214420755,0.13173802755370442,0.22260597566213447,0.04377442230061427,0.09859883365244235,0.2502069481765814,0.5171391705694967,0.14975099429740968,0.19567711789312975,0.10506226998284417,0.05135775483607416,0.1030098519323019,0.10417477969989668,0.3002696632066913,0.07646580804065585,0.11737601204142466,0.5630091622408475,0.056870358651534274,0.21170415740259438,0.1814711343709462,0.06271608870265862,0.07765014732512884,0.09007589458171007,0.1108442453956484,0.11965457544538717,0.21441741923308916,0.06433694626098883,0.12674252299864325,0.08947907894499749,0.16411854634095052,0.08429185388866817,0.06376563746319015,0.0939696585588334,0.3240489635386855,0.1147704231237993,0.11841716961263202,0.7053853191119591,0.13230117627217497,0.08948231828408978,0.18414473735035788,0.15435967806344872,0.03157077432246428,0.3320467836839541,0.07249354536787715,0.08388519260195723,0.21132494114509648,0.052670328375815215,0.1935885741300047,0.05875761858887029,0.05700928255182466,0.17317678178806378,0.12071735563223351,0.23192205687703119,0.03553908509493927,0.41747279010119676,0.16515702206322266,0.1594594948250305,0.9963322956008728,0.07067593684586558,0.13945262917302273,0.1415337354225126,0.10392560415129504,0.0929823622970924,0.05790080850621261,0.22972421662841136,0.13641287490765805,0.032121975541324115,0.054567677647309305,0.06719170313484589,0.263720441095477,0.46609833010578317,0.13834354467913942,0.08359817012793544,0.0693911702592442,0.2691151043071859,0.029544060039326036,0.031338973099286495,0.10219988286609542,0.43391174037321356,0.09659171281729888,0.03233604371267659,0.017897857093774075,0.08096254579767713,0.24485771212402352,0.3748320277453405,0.1281554989575213,0.024635617305724264,0.1644098334824896,0.21433308743439894,0.035389431879002085,0.019058034668843128,0.028851026854098325,0.24908027217666234,0.12930894948829438,0.16974269342203235,0.03570935066173467,0.1784752898870097,0.1476679960136177,0.20263709645017336,0.16418499339162634,0.1118400711165529,0.08170122160101867,0.04807435966248595,0.1458021238310196,0.01961064722747804,0.01800950489760242,0.01472911424011783,0.02995498194671015,0.030918445587192474,0.3563666952932453,0.09628428227241097,0.018013347738534583,0.04200393831262953,0.06820509531269797,0.21815941009073855,0.07509941896274977,0.11415982302556388,0.07848779849754736,0.04600844784904029,0.04883211401065325,0.028711051874992663,0.1445516838246661,0.08940409054305543,0.035796650244377275,0.023237749501493078,0.14234600174696008,0.2778951910404164,0.49550526365565345,0.1275934958819695,0.10928706222583924,0.30441633226213716,0.05310022347159065,0.5796790220788434,0.13930441290797896,0.27212933877205653,0.0410515257758811,0.24657164577761528,0.027295430788834063,0.03309106740121972,0.1870522167642047,0.031557064800665786,0.03335184249023212,0.013328983459889407,0.037787275937754106,0.3907794477108198,0.4607377443531531,0.1609167134630698,0.05007235816541768,0.5062003004494556,0.13992381958673797,0.038875427193084545,0.0535505425876677,0.26353362923308327,0.1354503680547334,0.3491816667372166,0.021255309588992632,0.04312103921402786,0.0755188700042847,0.012017448338453434,0.03484292403411386,0.035714356311923386,0.25323371118568305,0.23098930084634836,0.07053694407115495,0.2027054706933806,0.5470698204214501,0.16591019005855076,0.13313897458666477,0.155138568502602,0.12303576563860447,0.061282666498479035,0.09567707780329344,0.6900585436647753,0.31745190858034505
0.09191311829924345,0.22488084066331906,0.3614484601427401,0.5100736409557141,0.07156354453257557,0.3999875518492878,0.07279674942474805,0.04155772115442521,0.16631773357439864,0.04899173161621832,0.05352045197683061,0.04163027218904096,0.2304655069914665,0.07700331882405348,0.2003009687338697,0.044720588008099034,0.10297767059708512,0.08674129491167155,0.034341031199537464,0.03876041400364107,0.05374562126788639,0.2993526394757839,0.7712076679152859,0.24830865205459923,0.09016546287954894,0.0997694712737607,0.1605787867632533,0.24742222840855038,0.14446544668861816,0.2467528589573222,0.05913935949230584,0.23522952630608476,0.5083771709408901,0.09818168160939672,0.09712375544412734,0.19094415821069213,0.23160742593315486,0.04692433504008986,0.3565889938877474,0.13230804915612837,0.2472103433385633,0.07205556038968143,0.028164464980915852,0.13032623964716072,0.17501084805965816,0.08407754620370161,0.10377688360054906,0.12029646007411951,0.12406894249320824,0.3301831776833847,0.11609406796719123,0.08827655538532804,0.8707864789271045,0.0614811582698288,0.21556005386895757,0.08243668132686333,0.3673919757703302,0.0297624497172275,0.0649386950527657,0.3183448030047891,0.10742537749279225,0.1325057139021108,0.03619874542042195,0.3964087777471438,0.055724674301999295,0.09947121432165348,0.0971806432476559,0.134544794347236,0.11478284296307442,0.0576433006926173,0.47825544633906386,0.2650788089835448,0.050838976749757396,0.47731147410298363,0.03247107656894526,0.3946837655392153,0.23403216236997607,0.2113338140303981,0.06884417943033595,0.04910047016089433,0.2527284594367727,0.05398368281210838,0.03842914584141179,0.030362538162273574,0.14160317378776027,0.3051966835255212,0.14471289250003297,0.05321250339764597,0.03170168942944548,0.09284738755549538,0.406448024579711,0.03697875042690865,0.03571786050337522,0.06348715889156309,0.08634225646263664,0.04587325896667159,0.06749069717119682,0.054724298918720916,0.07625593674546106,0.0938135885452393,0.12800295987069882,0.20640130139432278,0.022310757832624886,0.0676762818190387,0.08058160514091689,0.045322290368116476,0.024629234697968756,0.045616928613149615,0.05540028426753479,0.20426314685767866,0.045545516314739805,0.06843511355851824,0.31948830573072473,0.12309937787516893,0.11260646407971947,0.05028107612054153,0.21318080382910604,0.28225136406018736,0.03538650991121871,0.14387882529986173,0.024543161306821326,0.01698476557190221,0.014888335852164349,0.03512018670075444,0.03161936119173921,0.07535937317911835,0.1693271509720281,0.017075768754076744,0.10514866663187158,0.17871153085453736,0.05703809650180288,0.0586092654921125,0.07084622782314272,0.13967499963437957,0.0347362515880872,0.08107379231231583,0.04015231544936305,0.16782423742752614,0.06923083416609421,0.030444546105333724,0.026427830447042024,0.1006644031619196,0.1374189212257464,0.32383202523914495,0.05711920869234848,0.06299254415987231,0.09933890047634995,0.0852670254222421,0.6302583700901526,0.10621168303586356,0.4540701764983292,0.10292444216754275,0.3761549804097065,0.01519283171723011,0.04255897746621578,0.06173956211957029,0.01936670495453174,0.019908804851418018,0.02003801109056274,0.055822887427387134,0.33764777462698936,0.12840234366407263,0.0906275289626836,0.036136703287583206,0.11812739919148789,0.034059330704887106,0.042097775479836695,0.09712618953793208,0.3279615787267404,0.2884577217289576,0.07667672736482035,0.031467731605782395,0.03645665191914348,0.04850665573631174,0.01881717540684171,0.017530117708568375,0.027808556446964425,0.08902329857015759,0.04072208949698606,0.12880827533565484,0.15675552443524093,0.13536387636828395,0.5664705871012057,0.1624779700767918,0.3596529487565393,0.252377842599565,0.026287543562803623,0.04234651116903255,0.40259023257498894,0.10268252032789885
0.09604258884691791,0.10889177896977595,0.3491309030578504,0.25977107035587094,0.12062725629701161,0.09647562989879531,0.039777601796796146,0.09130055588921075,0.06805267100230632,0.09616818952427952,0.06798524625364498,0.04265124557581137,0.1874248968024899,0.05187474447527246,0.296944299686598,0.11007981354525401,0.048208174647561074,0.11800208545055879,0.16201610721399332,0.06296595265985518,0.06092335307653845,0.12610726480030887,0.34870806687786043,0.2059477139540685,0.09548122178701327,0.311249797650205,0.06218809720402365,0.1340809230762628,0.20217456605220774,0.1712325675306967,0.04800064952023107,0.10938719908027018,0.2928830036941223,0.07332109259142112,0.1262777713111283,0.12058556311021096,0.30336907322546025,0.052176466434749415,0.09142950357517278,0.12161565304298014,0.09608241203859949,0.16534768692510798,0.033544556321195164,0.06961861057112062,0.1602016236364101,0.09436990260452295,0.22135005927112328,0.12844265500340257,0.09467927310756283,0.2849630376021736,0.06792245189609267,0.5738626121868746,0.52076636061183,0.20118672099906043,0.22701513960338132,0.07029042389654196,0.45645238450284553,0.03473860919059724,0.3687133402390676,0.07010961685013564,0.07172140213012115,0.28561585419505947,0.035669868056412056,0.4292811670901042,0.2545721530456259,0.1063938048666751,0.08077200907424527,0.2655934517880123,0.1993120145716946,0.02985364813791314,0.23147605892034337,0.13728170917229796,0.049840650729009124,0.4403425543497901,0.05055772558754816,0.3166865061957062,0.16427875909642528,0.1412261982244683,0.08052452475924338,0.10957243011261575,0.17631651700697545,0.09503848376336237,0.05495252386042632,0.03265007568433067,0.09164375597029673,0.163495955219823,0.22739335925457158,0.05294673672485642,0.03381362141717477,0.0903245207229462,0.0875759801142219,0.025872732610479576,0.02630906788224802,0.058025199086519035,0.2643036961074788,0.04010984082300898,0.028458283383232034,0.02331597435023241,0.09751070531855216,0.1272225628409742,0.3020703708413454,0.19573524905290393,0.021240731369630197,0.14987907859665905,0.12748095344935084,0.05091733754973198,0.030751409510801155,0.05069913634227807,0.06090499736244976,0.11993098940693721,0.054874635384074805,0.08561809398172632,0.16755339380754816,0.0675469502931552,0.23049964723978567,0.052090155386001064,0.2767162275321225,0.132263563100694,0.04582000512911316,0.28478663492895806,0.023492839489982844,0.018386795755545172,0.018325195547661873,0.02366972106728368,0.031685213943129016,0.2447012638261792,0.16185860706028332,0.01996552642059155,0.150398900081136,0.1906540906992134,0.05209113187937786,0.14455424625276878,0.11360514992692308,0.21017399937223405,0.03929558421886531,0.05877741895649883,0.04125188279853073,0.07258740786017305,0.09481614778547297,0.03593868937238423,0.0250202325655292,0.10628535867888551,0.20395153464299745,0.37856330121539694,0.09652187305235378,0.055161003588506854,0.13529861888820588,0.081563415113903,0.19016305717700513,0.0636224200466864,0.2880272042110501,0.055808725321401444,0.20122455507435338,0.022060400190940417,0.044390657059514976,0.0556983645080521,0.026460394533126264,0.024387033449038316,0.01658469732931908,0.03478064884900102,0.13777924105572728,0.17115022373068461,0.10878635488731041,0.020698031806501687,0.05874110709592123,0.03951886447205117,0.0430856715316197,0.08178097236556195,0.09660336278601342,0.143929490333022,0.12282641614762803,0.04078679502809251,0.04646617147535395,0.041583106872551075,0.013884453235461863,0.034060179040589084,0.028203042878840595,0.11259796659504015,0.04509898921084699,0.08588383498390748,0.05961311890565306,0.24676344719299467,0.09703814780471091,0.07631034787997919,0.19052989887479782,0.048432762715901904,0.048309692716265916,0.038597443106799294,0.21019528996083833,0.33958240744362045
0.10736589434629927,0.3325247696938682,0.23402192139950095,0.16105778455487313,0.05611635449127033,0.26709286365488194,0.04499749681816825,0.047327737312509034,0.10385453305061904,0.061178031094536935,0.04639839433383279,0.04693929529147516,0.26986658359264104,0.08196906437815864,0.3133777520538456,0.09122662733604123,0.04596137996314103,0.11623952908491224,0.040218028569735415,0.05077004127924625,0.09192707345280857,0.12726587480966745,0.33879947534505017,0.08591075376099884,0.0658776500094551,0.3070605952116661,0.08560839681575791,0.2839831496568125,0.3690946988648765,0.06879880474123805,0.055054532346095635,0.11514615500486004,0.19777976402978548,0.06786969648820096,0.1334180765227794,0.10066009627224058,0.07123234023371944,0.04508167367614086,0.2915351166997265,0.11512370101014677,0.16238256228584688,0.08288032280758492,0.03151176252652069,0.13518507449591238,0.16541406753167032,0.3345315403498003,0.09535601354084407,0.12631843184287922,0.16065237095595433,0.2498514066697859,0.14099863285190822,0.23152190408845366,0.7175603679129715,0.12837126980378796,0.08393243706839394,0.1502222101236491,0.07446688097604387,0.03755638824778372,0.25594229019327586,0.1403554861185431,0.07999847290129534,0.18093081649137926,0.038991863289628816,0.177453021625133,0.07566639183173872,0.08792714496703487,0.049417788077002756,0.23080414486037243,0.07392422985705079,0.03963634320789544,0.27801492487093504,0.10194709361769735,0.061724113274233626,0.33860250032888484,0.04709838877590773,0.12701844959955697,0.08186772071837306,0.1019060916167765,0.1224849550156968,0.037928860980860006,0.16250484570252197,0.10421078417356006,0.02954739232435801,0.03665000648592465,0.1031274157992404,0.15264774258992359,0.3813647946071143,0.21470623381145013,0.056140378892757595,0.05864979249457319,0.23881331456024343,0.03789837201368364,0.0339182378520564,0.18922582157410872,0.11331453429226256,0.04799148853879743,0.03343618928876282,0.021862430699517026,0.07768999834103975,0.12478304135276101,0.1782723067434726,0.14942559448276724,0.019255709981564336,0.18251597702389125,0.18857204094551122,0.06718687559897275,0.040209575863240275,0.029237137042176106,0.09991397173603617,0.06172195690486275,0.043652794626552846,0.04653750408993905,0.457641438915919,0.2539902353263075,0.1267650860688023,0.14405233293667838,0.17970170182991835,0.10637887981788956,0.03527184932826166,0.19439791879277704,0.024064150674217133,0.02482123592971661,0.020021796542981196,0.023686787330608236,0.02989374396413024,0.11725901212157347,0.0632152666225357,0.016047121061642678,0.1193059421424354,0.08597546684124933,0.05435462612870733,0.08493031766374344,0.07885077615528097,0.08268075956246072,0.04630423181350694,0.051466758724528605,0.03581816159499738,0.09087793809991637,0.06606076355379115,0.02539695613613036,0.024329909959145593,0.07856683375411597,0.12370564138550795,0.23513185925446795,0.093363647371623,0.08061519870965271,0.3309231533134122,0.07462744277400839,0.6882607085229622,0.10133092892133681,0.11269284166270839,0.054495544181362474,0.20266278611051083,0.02852227037558922,0.06501558051973497,0.17044303654838808,0.017778175336172198,0.03105481490141734,0.016270746001495303,0.030781679038599533,0.15592761883161574,0.1390371629222225,0.06804690867341498,0.023483122534771538,0.12578481001631336,0.051221213595646915,0.07660277989425772,0.05058677685786881,0.11149267789337455,0.12466568062188081,0.3040821670390874,0.051352947080790017,0.05654408555571082,0.030519966758882574,0.013294301146758463,0.05113896640320999,0.04981060420593346,0.08546693971743244,0.07820400403415528,0.11084568829922874,0.1522844076924789,0.1375846225769957,0.1452851682654562,0.15395871122840002,0.06915508735575886,0.05686788555380816,0.06708259269624124,0.042390179339606336,0.2696423136436398,0.5582313484372827
0.1421498934607455,0.165562532590364,0.18106199352970873,0.15704350849501664,0.21785973920123627,0.3489863189491098,0.028335904738674422,0.22578819997683244,0.07222367558176357,0.04740418326586337,0.06862954210709482,0.04344138729716223,0.12763948220006882,0.06767703861734832,0.3490294063094975,0.22424154915817618,0.05498916743317186,0.1041521460723187,0.185284671170527,0.04470315768169613,0.06120351309967913,0.19212962260184274,0.47000776946918127,0.09277001647149924,0.14106152511975886,0.21637998768196973,0.04336848160528953,0.20360014990528033,0.12102371326413666,0.21103500774528566,0.05065986764518654,0.10243988201304356,0.34533184006274087,0.05893002401112419,0.07895497957941854,0.08222357082547449,0.19035821310687825,0.06199704995366432,0.2545755965626684,0.14830779106357359,0.0839045661765469,0.17630876741145296,0.02468908174040694,0.1184652625195624,0.08658873641809411,0.062884642059502,0.14220046151687646,0.1157120953543406,0.05486364609824599,0.23661922101868996,0.08921249043509681,0.10363690777876032,0.5729740509786712,0.08625893961445547,0.07105516484270614,0.11154447759262265,0.3986040373855747,0.03647196039275578,0.20783364021032358,0.13565990621311713,0.09377819200430453,0.12938364856041742,0.03580329634356211,0.21104559200754086,0.05690993526223425,0.04555770603287327,0.09941490800235098,0.30724399264735697,0.14499786997596298,0.026186531285504477,0.2544991220953739,0.08918813989707707,0.13754945278811098,0.49159890509250964,0.05346772385141896,0.07280833704894038,0.11112017549485802,0.09488669938207696,0.05182452930748479,0.045405956927831836,0.2612150684840126,0.048736176721683684,0.029265460609614612,0.02685691382863651,0.06033817078765129,0.16844665088871816,0.08417402113162503,0.07139820118289525,0.034738275018712614,0.03829823964332037,0.06904441959237834,0.02888095025924206,0.0374742853303869,0.14461682809330295,0.23978518166041604,0.057551903372378345,0.03760378613378699,0.02025199956904324,0.0618590721969986,0.15954624374128495,0.1625870818480228,0.10725277723046414,0.01640312280591238,0.0997574766013287,0.21291449569498763,0.04287433993317883,0.020095921440083417,0.021192083893136853,0.051089585273511456,0.07388171682914377,0.06389569559218841,0.03107697989483376,0.08174180830651653,0.07450535201066688,0.09425855303105159,0.05492537683220327,0.08312088936160889,0.20871064299441328,0.06505892666451232,0.23224257371496532,0.01961962679121974,0.014171410479834104,0.01869333138067509,0.025500683020409722,0.02808333734613783,0.28218159124166786,0.07519751422177993,0.015354944415219823,0.05694974923155628,0.08662102355157386,0.04746307344860254,0.0760235581658593,0.05710819301222816,0.1285644319835192,0.06021771566164055,0.036652582029147375,0.02809880705466307,0.14173541688172783,0.16599323386524653,0.041881551849169814,0.018263722244336006,0.10495705959991651,0.283443304916472,0.338819521352369,0.10301475774925604,0.06687823582920253,0.15672963050769315,0.14345216984479275,0.1344300221474432,0.08655905252230997,0.27189966925324777,0.1864174580724049,0.14656899811298463,0.015534095607631516,0.03578312420022185,0.1778655565138093,0.014801022014426258,0.026232131120903723,0.013534751317100416,0.02289391855972938,0.21713626291559004,0.271945052979398,0.12628191683236495,0.02615512184961745,0.11436598316940708,0.06823583446265491,0.041499198893661715,0.082439555873696,0.29634049458354467,0.11300116157018758,0.32234123435283857,0.02893483801427736,0.0326917319727503,0.035194983224527,0.014088021740303158,0.028735222203901706,0.018447926657834842,0.2876413410888936,0.049904867248903764,0.08176893201434039,0.15433984267062248,0.24115958699109885,0.29711470672380635,0.05126063777596362,0.2698518331536281,0.16048533608226434,0.02624992810437769,0.02654997065127412,0.1377209457554847,0.45158179849957564
0.31145930049856096,0.13609215441308392,0.10093487891381589,0.2557903606760358,0.26377577451439327,0.16856610659357288,0.054566919209674235,0.17277620835491658,0.047016173566985925,0.08098172859682524,0.08774923760677475,0.07286687729348269,0.11815922250334022,0.06818358143434582,0.3885189468783905,0.2927237958655602,0.06356646707364734,0.12286039332545229,0.16947981632836184,0.05748911227877282,0.09584987797709509,0.18069346279126608,0.5935272771361252,0.1761685803397647,0.07577598709231553,0.13836483027957608,0.06467541455018293,0.18692004379220942,0.15192801720002722,0.17945107440764968,0.04992493195464696,0.12805395218262167,0.5133576298981872,0.06519049306863858,0.16067784006207372,0.22723974089325974,0.09508331937023476,0.04374287456671367,0.18216075747710467,0.09477021853608183,0.08234919161701444,0.09126731934736391,0.0631211832809029,0.2090364676704348,0.07105684423648582,0.28119452974704007,0.09674146050530676,0.089290044419199,0.07003285542257087,0.23724049569175545,0.1450930766508256,0.14356930075994395,0.8288619671251933,0.15018074138137316,0.07936852712794139,0.13878237964053644,0.36633935571592535,0.05935311901293803,0.2836605045872951,0.15052931340779374,0.1549678369299841,0.21025182183807012,0.04868451655488515,0.46126268599237175,0.0785560429319127,0.1187834117252296,0.09148494774117799,0.19679710068226788,0.2496173855995525,0.029908335984824556,0.38184929357933234,0.2974452744930456,0.11064761785494291,0.6336568185532069,0.054382946969158415,0.42301493322769196,0.27818844648209623,0.2465651161224778,0.07051515584602797,0.0736987109825868,0.2790340916789558,0.06474656633794429,0.030539449438487524,0.039056617483904134,0.14655836161593297,0.11123242660866647,0.2505195381803624,0.14587248608452305,0.046515054049778085,0.05257614537291603,0.1864158890108257,0.04008217394558723,0.031949648908037025,0.07580031896677539,0.1387927279031669,0.05677498633135825,0.031144892452892353,0.025533402940732877,0.13952913372023884,0.08907741025195076,0.15432758972510932,0.18813852435427356,0.018317974626385385,0.19448306036020624,0.24176420579583202,0.035509734085259516,0.030917930882317184,0.024119594191352994,0.06357001143109516,0.15096895520858458,0.13537035891113777,0.031571810000697385,0.36243742174572263,0.1561022845719778,0.10140709058932555,0.07697626104425678,0.19049817719814877,0.141581860864112,0.04102335101298583,0.1784178282790462,0.022322096328277342,0.017447439832256665,0.02035458012154909,0.027123082269326387,0.03393630178316563,0.32755831145751385,0.08264335190745373,0.01845518983554878,0.1702365562257876,0.16551789106143291,0.06168763610213747,0.08346702245436943,0.07497785642700504,0.1665303478894018,0.03503983248261577,0.06113562733445339,0.034691823720161795,0.06419825887951731,0.14579804835826138,0.029103011303010087,0.021460945459819965,0.06438643644882967,0.43835666298547926,0.48545335188604266,0.11315884762437067,0.06641525076208825,0.1184730333268118,0.05940466213138601,0.34390925414529366,0.12080857526068946,0.1681668445245237,0.04136414437706929,0.14404056138035867,0.022535463773133858,0.04985181959935414,0.06902425297826362,0.019107120379998944,0.022393690917394668,0.022746717027069856,0.04236272724665293,0.12511339354638149,0.1414658577135976,0.06106315537422329,0.03374691221420169,0.0988094465708324,0.059272107982439835,0.10411523687927718,0.06620372190480732,0.13852617957776528,0.06882468164209538,0.2759785358621996,0.03810014438314935,0.043332240238760346,0.02893061084525809,0.013761608107532556,0.029166812883783106,0.029088692442901205,0.14516181981546986,0.04465271573887837,0.09402464153913856,0.10448624433441547,0.0990599500878053,0.28313062900902647,0.07958272888405672,0.1404124004276329,0.08034519826403717,0.041882128203264916,0.038976969953074855,0.1520094755770517,0.37716477167608714
0.16224550680810879,0.17427442975575447,0.29934485176014775,0.28541324534685125,0.1462734030255323,0.25219185711017567,0.07053224506984734,0.23684963817770213,0.07684261832416846,0.07028298147756362,0.04839647084568325,0.052926446121204555,0.16245770802204404,0.06428241475814468,0.1782084583371785,0.35644725990409176,0.09090666318275477,0.2015649382824005,0.10760228418687741,0.06289603035977746,0.11824338268020261,0.1282723497326432,0.5194635792776205,0.1300530830231417,0.15100817529521401,0.11045593860319423,0.07816511535290657,0.19065737772756727,0.14540392052107287,0.19837301513355268,0.06377814329036394,0.07184061494973507,0.2849002598306617,0.06741995783455038,0.08468592704131211,0.13554359977041297,0.37377599357191804,0.06358088163988825,0.11173631025586268,0.13501312870813936,0.06891358925196613,0.14989074921559614,0.04217351134614663,0.06619040812652642,0.1552937992240087,0.22668338399760865,0.06736356064101483,0.1263168130975872,0.2556831573195535,0.24751546282028664,0.24008408957914923,0.1361735562704602,0.4347977665700942,0.07075470725771815,0.08786285012155157,0.1793680892560903,0.12319878079244623,0.03288101889193791,0.127219203969742,0.08116452558761195,0.1415077280339225,0.25700822115572725,0.039642182737430386,0.1389297951647742,0.08794790736194585,0.08883149426865761,0.08447935644539188,0.26719720642424327,0.05370028280327481,0.04046614443517242,0.2285859367441341,0.10617913067800996,0.06363244010040617,0.2706133677979957,0.03271095536627592,0.09424803559081688,0.06799858854455032,0.153873222816295,0.05449121676424995,0.03509039884825108,0.4184402356085399,0.05730844162557986,0.03621684295948698,0.03940403968194266,0.15280635284136324,0.11668915515790462,0.370948307640646,0.08504599354078823,0.03378288698905405,0.06378692793130168,0.2702546540371463,0.045055018860263904,0.034261898091721345,0.10384505452355866,0.14929565449433108,0.1097295758774737,0.024023737695533925,0.02835629728044849,0.06653751644239632,0.12668787193892117,0.27651644234393985,0.15231083326230452,0.01818506748200815,0.2502488403218979,0.13506458093591184,0.03307246189207448,0.023748541390142954,0.02929494596366549,0.20084369173411604,0.07555938711680399,0.2694863287709643,0.038881064766029795,0.1364255750783846,0.15471264963699222,0.13557913789146286,0.13234770006255014,0.0711876497467175,0.2377393020762909,0.040143894623904476,0.0762051367408564,0.017674213349809165,0.01912265158145465,0.01767796316761382,0.023892941857364867,0.052281784841894115,0.13762558617439025,0.15544538517747694,0.01853403802289377,0.06479361689313506,0.1803104207573458,0.08603772190363919,0.09724735482988763,0.09939925964677149,0.10597835871738244,0.04606694491698668,0.05391156993972095,0.036234626339534205,0.13142455876935422,0.07357039198715305,0.033824686472126254,0.026719192150736034,0.10310904294425441,0.3613748138893096,0.17849870564914544,0.05396763919566571,0.06371140673303725,0.21280415397377186,0.06638107123046202,0.46943951644559745,0.13616291120204746,0.26485409092234896,0.07103907779154983,0.22704093535428896,0.02450641066648247,0.030739238003509656,0.08764108649131297,0.019936150837304576,0.020305077037006285,0.016543892821617605,0.02962083985199665,0.2292786592468982,0.10529827591245161,0.09059599916349408,0.026899817943972688,0.1475574437757853,0.03900767750866386,0.05174216733173969,0.05874618389972859,0.19468298036402057,0.05369930090549713,0.16438255456326636,0.025898470696034223,0.036137359889932164,0.03862829202788804,0.012891676069159638,0.02653243391133362,0.028540007743126004,0.12164504572750323,0.0415318682326553,0.0565267101278034,0.11574333898374123,0.10944713319473792,0.15334396514468,0.10957611579008551,0.10539755748418382,0.1696840298912723,0.03168126570105093,0.04905620544207034,0.3541624263322185,0.14805371361618797
0.2071396367482942,0.29594307939092335,0.14101130127838296,0.2424209601472359,0.10189420228055171,0.15044459234433946,0.05618673943219801,0.12073033101679252,0.04970431750956957,0.045619195954575024,0.04428545178878565,0.04387618276466976,0.11912319523453982,0.05228637038499441,0.3149155614523157,0.1207228174466486,0.0625379112523502,0.13054880757857368,0.07909946534193428,0.037507771444233284,0.11431607322917489,0.09082776779394093,0.5374055631820638,0.14426629727367302,0.15618536434222927,0.18383725961910355,0.07800338520612782,0.14737399235404394,0.11305082302209617,0.12580080579677114,0.07622046896468788,0.07230705029584633,0.18492490335263498,0.04519929068453128,0.1497103373253435,0.27724498466947756,0.23623638566508703,0.051630197648932535,0.1456583403755591,0.09569090779201748,0.15192234728667384,0.19161471691321963,0.033332456032710234,0.10769632106713103,0.06515359167373688,0.3121158187378366,0.13203675701598544,0.07208242559664325,0.09011098022943743,0.17186781024225958,0.15110768828791843,0.18425020360216174,0.409323270450364,0.12148728139568024,0.15896580210424874,0.1309424197650481,0.11579093606115962,0.03235801284611857,0.09342827948157188,0.2665238559823973,0.158100178660759,0.21361000099176208,0.03255424994044304,0.14209561150976097,0.12924514834339398,0.05381500603984316,0.08683605188849564,0.1493846617047318,0.07640458065137087,0.036080607272400145,0.25963636779995025,0.15199880669668278,0.05162523594317069,0.3445102742807884,0.05198470546450621,0.14388241846479605,0.18194200364076832,0.15623234622874832,0.1583583874479636,0.0531704527306164,0.45269459047022936,0.06130039324032846,0.031512168858251144,0.027489853981007194,0.27911602063010577,0.17198814314308936,0.282380160774221,0.09886846465123485,0.03812965900825495,0.054580118896944405,0.13758721541149826,0.038099228556625044,0.029334791684143047,0.0613517365969613,0.09302740898126732,0.07608310833224123,0.022206318302721698,0.02290705984255952,0.17780152634142785,0.13311736151625767,0.2351960978212296,0.10693944496811171,0.022599769189431202,0.24458421229659386,0.11809555456581004,0.04700946563778155,0.025353081616013073,0.02789239200018544,0.0939760939185984,0.07654249964646999,0.06128635022669948,0.0437414063357447,0.26594042077458907,0.09289945021816597,0.16161661780893363,0.14329469346596901,0.12806518690797147,0.2287274128883322,0.0379948174895572,0.15222336215128618,0.020601530839002506,0.016818980364780294,0.01741744469959999,0.023811189933991988,0.03803724305639845,0.1330514323092367,0.1160091534971804,0.012091366169132232,0.05240511485051771,0.1225182210082118,0.06610235596591339,0.0859337840742219,0.1228485090884406,0.13241522797070046,0.039608891824313056,0.05022087744002798,0.03952597567212978,0.05857750315420476,0.10214109989155461,0.029985954979553663,0.019559252582556128,0.09265609841865038,0.40983261652175423,0.0964205820898725,0.061343914080801275,0.08104756246975059,0.13993330031247314,0.06630638643998842,0.46305652602464403,0.20786288816840773,0.10712281634475816,0.04346807379846584,0.1822806819577535,0.01854413560259796,0.037222639766849586,0.09112764208351146,0.02716834558822324,0.022694394166627913,0.011167452249457597,0.02305958797331357,0.13486649024365097,0.0992436600721041,0.1057425675436111,0.0432420224924905,0.08054556186590402,0.04738818732325282,0.041832494797682425,0.05211121979625753,0.14090811304312056,0.08964021485039599,0.1571047791502258,0.02942155324163534,0.03938558581049964,0.04377400291914546,0.01671309889409942,0.026636718955191686,0.02804423663611253,0.09820522134707114,0.04452114207576822,0.06927407023154955,0.10775648204398149,0.116416298864824,0.22379998287858205,0.0894316545884906,0.08426664869598216,0.06764704038065206,0.046148924309537355,0.031221671598552256,0.16552097544924388,0.3438376648582166
0.08678806333634763,0.38155099770026,0.4638106811910659,0.35355855057411606,0.1683335311576558,0.2939980894849758,0.06110234512972449,0.23159003040323936,0.06322051141728141,0.18404791422655575,0.05055576199028232,0.05664142219713172,0.10402356120593906,0.06444990182250285,0.1701512611282673,0.273398072534004,0.04746289370617415,0.2425341486540808,0.11906561482633511,0.03804224917413071,0.1252773826395072,0.16266011389538107,0.7190120401514963,0.13519192439633737,0.19175722689270852,0.22756366935149025,0.04809484993131298,0.2066866996636035,0.11188318169754659,0.18644510231471706,0.03721445965683509,0.1584012608514973,0.09940107575807834,0.04505818521834078,0.08025021035219305,0.285624258006187,0.344347408856274,0.0735268213011719,0.122162578803308,0.17475885810690833,0.1307908688325377,0.11181163013227875,0.045099388992728175,0.06406658734346718,0.21349613097121126,0.2966253143894812,0.08946224676072653,0.07826932173781022,0.19210346947609788,0.27418565038440446,0.16222024961397485,0.12296706865119007,0.12974021262499716,0.08087358903738572,0.08249663197693352,0.19054624663117328,0.08310264867135833,0.03423937990269244,0.0751603192129345,0.14853157583328147,0.17897893068901527,0.3489943590283498,0.04727050012884469,0.1184631721115966,0.08934230565375154,0.05197503282183132,0.10773493476477933,0.07405331564436098,0.06502482466650049,0.0405672635625492,0.14004026700809336,0.08508200824407572,0.08390567119811645,0.33341576587401395,0.0862116536390514,0.12626110818603098,0.07473250490055162,0.27445490794195554,0.07699194150188021,0.06333720046170628,0.18374030871619004,0.05647459608061691,0.03230279885501196,0.02391962904016329,0.06208738255376575,0.18032092437574807,0.10605140687752365,0.06253304145180232,0.028290012597212002,0.0637085158101401,0.13069420451839753,0.07376450647338262,0.05298347498008792,0.08771056447609221,0.16356759846983032,0.10720641373388923,0.04026264030580062,0.028269628706500977,0.055628371237622064,0.30180320893883433,0.12029066260394339,0.13764318391964533,0.02169214514381066,0.12447793196484626,0.1669027515572383,0.07773601023964656,0.053238616127504496,0.05022526688808234,0.05512658153596498,0.0974787709140521,0.0644383266536383,0.06423708512701698,0.14875131907209185,0.10350609117307578,0.09702960265815354,0.13721126239924078,0.0898434963351609,0.1787810923569242,0.11338747333341663,0.31336514418509154,0.03493529406965183,0.028877904981166953,0.02056219083326021,0.02162574356561641,0.036755189308185714,0.3034111950721397,0.12704933862057854,0.020578693005280493,0.04754971858629728,0.10870467922104189,0.11590643203983857,0.1516694798677211,0.09626708022354707,0.08733275063817073,0.10739895944556241,0.053420672432853984,0.034179783351370174,0.06535322459412754,0.19817874290151502,0.038058279585922776,0.02837897635678612,0.04590472345362606,0.21987225069512054,0.21326756731939428,0.07304076000420487,0.05548887195789427,0.1172331909753413,0.15278037469719366,0.14692338097331314,0.07475031023798887,0.09024894818479923,0.057135828711861784,0.18305615541103057,0.03099685224610572,0.05888269979066668,0.09706018825195696,0.018263358587622142,0.03288929805075912,0.01958357662546293,0.02691936383853633,0.09066233858438659,0.19924378526760117,0.09152423659307833,0.03642694711958853,0.07792020580031365,0.1025013327524971,0.05398664354942829,0.06866933552955289,0.249993454246845,0.11210523570475965,0.19635874876564235,0.04015783577084577,0.041292561781622716,0.046058639531020885,0.020330696164234965,0.036828144877136655,0.03364086524292151,0.1703325464125053,0.05391406407294313,0.11910441416554192,0.18913726882048287,0.298521036715249,0.25624953000666845,0.09471367338553262,0.18631320955984726,0.052251431492964844,0.03813762398879103,0.06558248512989286,0.1238255320576112,0.26503855747149835
0.15435533007721022,0.10961952496303372,0.3345193567919697,0.35387804003390094,0.0748402123677818,0.11207440917972711,0.06657956197129167,0.17297434354992025,0.09518966275538587,0.0812879387183606,0.1181421079379253,0.045170682106797345,0.32604050842431237,0.06492222497591825,0.1765966548456348,0.22786076513369857,0.08510159564627905,0.1121821011009494,0.06850027857677687,0.03260694640891177,0.16358497350058598,0.10955932260757024,0.6331999457073402,0.1309612532543349,0.16632410967907466,0.17559939923535092,0.09874222211902034,0.10317086274585457,0.150855144553511,0.23270844253273787,0.05061759038589768,0.12356104942005267,0.1895234953918843,0.04158376242186331,0.06862356561632268,0.09896800687382451,0.2332369359850025,0.044768306894795544,0.3545466088407111,0.18299549823379532,0.05935333824966894,0.40980693040640737,0.031532200557865334,0.06813582756082164,0.1330700552469632,0.1158479705225796,0.16490258522252693,0.07915730552305457,0.23678991088119844,0.15874769522111684,0.1959299860966727,0.12321211298775472,0.3623594215837894,0.07476696105525837,0.10990073118208603,0.1499680621652476,0.12978918715360171,0.02658075182897143,0.2923721298482471,0.2092258201026864,0.0813460317816663,0.4891660483112036,0.03840295851673322,0.2905056519950246,0.09362658386858201,0.14652113719083912,0.1273155274730073,0.19401404751695486,0.11068601330736336,0.030559412267606705,0.20537809916604055,0.17676416365001135,0.14194399135437902,0.19192656972414096,0.05281979610194793,0.0788831295729581,0.07441535891859162,0.11081321289597175,0.06808513960204782,0.05040626409076414,0.2504318077781819,0.03448023000276294,0.03763243714682066,0.025083635773457815,0.21316429634144046,0.13441078275735552,0.07115470887931911,0.046058610191595226,0.03043355846331702,0.054600082909412095,0.14378220560170654,0.04216234822981143,0.031665026585268714,0.08802963979502973,0.20023303424107575,0.11504275425111703,0.01906780763374937,0.027810354592003417,0.09804093919528398,0.15068447675792992,0.2611299521592581,0.05358217172653654,0.01791786581101239,0.1193921670197642,0.1888072627870446,0.036419732586257,0.018913986712401076,0.026059906226938413,0.34765619339503245,0.06988930433028726,0.3962668108447061,0.03440924209080086,0.08957913911793634,0.07947450849387752,0.06980523343701243,0.12587951551142076,0.06603676535526645,0.1917468404732144,0.04196704776058284,0.07209577742279008,0.019918876833552375,0.014089576546349854,0.01533706320440987,0.028745642508873525,0.04794167975897428,0.43066240502470493,0.14995133909400002,0.017497054610743332,0.03766945089889826,0.3223435403358528,0.043528671503643514,0.10749755911667036,0.0705614405130785,0.13873746301049142,0.03475169001030083,0.06486143144465731,0.03017614690107694,0.14445763318239557,0.05181529751953357,0.026287231150460475,0.024133443887203298,0.06352872578093595,0.28102802333969124,0.11553555776954097,0.06683456684150678,0.06317923761793658,0.12175493528420436,0.08370040166522755,0.15230110509901973,0.0711031349622757,0.2830135858694412,0.06672529974418412,0.1429832442758904,0.016929544449718233,0.03516830908109306,0.08107898421652547,0.02842053472830712,0.02317180601999082,0.011265192715703419,0.04570669210322223,0.1653558455976171,0.5034769335194106,0.0629016400372432,0.03807564631164287,0.06191081127797328,0.04580390168690854,0.07816123250489405,0.041898108078250965,0.08091791599220811,0.25680838177324644,0.16316741627894993,0.027136770036908633,0.031959707794109636,0.05038352424415089,0.010648086662871923,0.029818527724333656,0.028490449641598706,0.08713955985938186,0.03790069903316811,0.03308572611000315,0.08053458994359751,0.5049147096847973,0.396779649560377,0.09159417593327303,0.07569538429630845,0.1407329565698427,0.030421268772894246,0.03623621088408608,0.193880016366529,0.13721360376760536
0.23968972015266646,0.20643290770402603,0.1261585081015573,0.3973312172648595,0.20286181156548444,0.381586908445048,0.04548875557437299,0.13064614104369848,0.05833180517586919,0.04855191141663075,0.08901964744982148,0.09134212078643836,0.13438732591455937,0.07432308733764108,0.36169383261818444,0.230081235225642,0.04652977061938804,0.07791855783164918,0.06098364668612094,0.03522940577543038,0.06596140160508113,0.09071533557649152,0.5366474072232617,0.10776194228889026,0.09703682799031713,0.11739801944622054,0.054174073382023555,0.2719049486428414,0.29075938042354366,0.26370737464627286,0.05759114325042982,0.11556452124798312,0.23969802308010252,0.05628333672979583,0.09867942147552611,0.07889771103362422,0.10596833194423134,0.06549251361563498,0.3047702989396203,0.243186956311242,0.2529397842072329,0.09222392477997116,0.031385668717847696,0.11378346828536211,0.05070284316238259,0.44220787966160885,0.19378882387275653,0.12285448996779666,0.10142160399177452,0.17796864794702616,0.09268423858608761,0.09644747484863149,0.4820045229987694,0.10578024063923297,0.08636840283518467,0.2584998829949522,0.09928970097135241,0.030458227421721048,0.22377231697823227,0.09506653393224379,0.06103710405628652,0.11601117590850625,0.03462747608666164,0.14880518143998545,0.10000336432814419,0.06047097298214068,0.13396907029357022,0.21441678541247605,0.07270854379888214,0.043060053145544556,0.32633812278831476,0.12384818512923453,0.08264372463799981,0.30793145619131856,0.0340680870024288,0.09430618361990423,0.05921680341855762,0.10631407088697975,0.09189585474403691,0.07465140917203963,0.7028986668072731,0.0336749843941244,0.032116532415843654,0.02351855973276662,0.20279618923614734,0.0870316593907832,0.1425112409936378,0.1245144870806364,0.06607794422561238,0.041827404200821115,0.17891943436910382,0.043525167500983473,0.04216195643387419,0.056910405275740816,0.07966458212307244,0.05037196081038744,0.029979932100432642,0.029768614747087845,0.07016321411372721,0.08380626511055782,0.18008100285941184,0.0780821585311766,0.019368920706100235,0.2208467440887981,0.1713873005325958,0.057716763002480465,0.023398205851699893,0.02321224383530565,0.09165415506121564,0.1369501674122606,0.08038684134790305,0.02351596725337895,0.21181029943473964,0.16158377999554452,0.17596431670704066,0.15075776857420833,0.049459978655551004,0.2813354407261704,0.05522223686697602,0.12069999737391938,0.022580734460090734,0.015620731133931802,0.014376532759456183,0.022606231573063556,0.03002712583650954,0.10583390294373618,0.0690339495562146,0.015569620619842562,0.11103796988958073,0.12308387464082844,0.05809875638290234,0.13234350326001734,0.20952304286755016,0.08889192471502518,0.03599159737859535,0.05625007609821649,0.033390614878695574,0.08879601457641743,0.06725001020494205,0.026620280490068517,0.01784457952079782,0.0811504171845843,0.5061118670439031,0.20164336987393433,0.09084851872554678,0.1375893461106806,0.18528943419710012,0.05846204413597844,0.3733554275306494,0.13292708031943598,0.07873210568051259,0.051637825436496275,0.23484523840078295,0.020170330915731133,0.045558414723543474,0.06848152266218323,0.01946992083870378,0.026907800703087747,0.016100275379156967,0.02432739916191159,0.078846768003686,0.466420928516387,0.06824377552318023,0.029611000347638146,0.06433463840842238,0.0782962560490084,0.047288068208374084,0.06903000531326017,0.13241272844836866,0.06722216037133177,0.3499617511407948,0.02978205174672214,0.03799779819205443,0.03791721715362656,0.013359033446328524,0.024409106033184566,0.0251281977345093,0.09709889474564717,0.04803946436501852,0.07955511526613698,0.12694672592137948,0.16654299334224676,0.21309872698403856,0.1375946914478631,0.10560205197639547,0.16427303971223126,0.03222003342802205,0.04315718609151278,0.19344436742996104,0.2803380202491899
0.3856321613734523,0.4069736226118373,0.2583127730690739,0.28936239536097214,0.05636695344065097,0.464065835274267,0.05489376228699159,0.07254563371430979,0.11196675844647712,0.04455756191342559,0.14726149318464504,0.09877321119345284,0.3553066395363563,0.12127372338688644,0.6132282076005807,0.11870600344088021,0.06776044454719027,0.0567937471109608,0.10608433083379055,0.07793234623897244,0.11728880276078589,0.22207610182265516,0.5604306504136233,0.1067790187704362,0.0615922438259486,0.3163746863445423,0.1094033081688068,0.3370668116277465,0.08084589673888506,0.1853804688897545,0.053474449910444484,0.07500807115665747,0.44793771906895996,0.07940446550817554,0.05630649709335318,0.1559938943686771,0.07667511299321017,0.0418734596042416,0.37561374867239516,0.23404970697313088,0.2346585610563028,0.07619214109431637,0.042917386555906246,0.17756153065323585,0.10758146759158321,0.21622447769299763,0.08813402865536939,0.33192653284938906,0.1187742503610776,0.21789972740230096,0.11166522317586279,0.24460352952423897,0.5182435958473989,0.08711026003909605,0.1585883171173442,0.11004089235698952,0.16133158220354654,0.03370219391759372,0.12608087763227013,0.2118111956968743,0.19090957769271766,0.21880095825375062,0.03726231635721222,0.11093269807032048,0.055305134266353445,0.05425719542735097,0.09537675081531631,0.09171646531834862,0.06939188221115819,0.04582278135757047,0.3012606205718223,0.15121861559647776,0.15546304340612105,0.478957699180637,0.03895789682556615,0.2330196203121679,0.16476182968773262,0.19853498026339925,0.10908885557257038,0.03197996584418565,0.21145415729936187,0.08887926699477866,0.05241153216150367,0.03468960190939925,0.07649203441434395,0.09108547161445892,0.1739077231610754,0.0587664736851872,0.02768021505756818,0.07944423559861528,0.11079772492852412,0.04814278722442198,0.04259049635512992,0.25779152984494624,0.18148357899496234,0.11512884470620369,0.04305812423820136,0.022363366503427722,0.08591667709533243,0.09960243524357346,0.17125319365742867,0.13786255154040025,0.02490476252552777,0.07836740901695625,0.0916209756814614,0.05675372335081565,0.029893375724070775,0.020571554443101093,0.0602751231443395,0.13850998589495683,0.05322227519763133,0.03510670616647256,0.06499293771576477,0.0673787578919638,0.12604586411074353,0.12231429164080751,0.06843551001984845,0.24514319161614925,0.03968257440302393,0.08201478050947998,0.02098968363484975,0.017995731735406497,0.01740503852963358,0.024154918075476525,0.03453804304427125,0.3510903947038824,0.20688961518213045,0.015139033261398706,0.058229713156946,0.1417997507414442,0.057180376824070726,0.1204037930940399,0.12032544631235924,0.10770566324464714,0.050519603752949435,0.07277786677789962,0.04384403235646895,0.16445611349828893,0.14796806522699615,0.04264090409948139,0.025080098148903746,0.09847759136214623,0.30168911184604563,0.44422264329851296,0.06342431326893849,0.04502885165265632,0.2974965404907138,0.0709441582219007,0.33432349298056246,0.0718891668262914,0.48600825765089395,0.16767822262698798,0.1598944278091105,0.017542084228150973,0.0436400972700172,0.17850016622381132,0.0353732577498741,0.023090832572165577,0.014510710877552591,0.03272502493949243,0.2424370501338403,0.11349781572636791,0.07415983911863781,0.024009509680021253,0.112068501384484,0.08793546578850947,0.03403834284992515,0.04346296193634271,0.4432946881026879,0.348775914630735,0.09603500707705803,0.03072805959825631,0.03808651124309731,0.032563174646593245,0.013157835409506737,0.036246189472855614,0.02376406531196122,0.16248255184300686,0.05189590819423513,0.08249916647143292,0.10524854281583136,0.13362053477959782,0.41338485563977245,0.3097227890062517,0.2753107432250098,0.145011950101524,0.030076086507051587,0.07828422673038998,0.628372716967451,0.12111701487641173
0.3849316702611792,0.28464536605178076,0.41516872559986945,0.27977263881625347,0.10921132115722737,0.2469574658990615,0.05477698268158408,0.05979192864713824,0.11631145871273489,0.12026193256988256,0.07544469810707563,0.09238244671951705,0.21102502042411214,0.0706056989265594,0.2630632358397786,0.11975675368674951,0.05849034857286365,0.12286778749254774,0.06140383580308062,0.042085297933537665,0.25298000975922325,0.2667529516080839,0.6442812554036865,0.31801866504353454,0.1423815070115969,0.12692995387493786,0.09403673180454325,0.1180836401508531,0.12549381194192336,0.05941752432972704,0.1449481532529089,0.09947365737664461,0.40405828395995563,0.07621423622479549,0.09372909872221931,0.3732882883172303,0.2156570932178335,0.04463819248611517,0.5271537969430197,0.1602090362363846,0.22984938391029577,0.10098191649806879,0.03138584308346146,0.1003998206830482,0.0880819027991486,0.2288945211370394,0.22355098499408846,0.13148084975025795,0.07868099146209259,0.241967284495616,0.07274309903038079,0.17189420632966332,1.1026743834812704,0.10806492133146997,0.08039959041116798,0.07373690779773596,0.27869193459261893,0.041410406887309494,0.07958176157750049,0.25115262933724947,0.10637443380746654,0.1321361673113345,0.04911150829055709,0.20482297462461432,0.0965239183554541,0.08045809606088071,0.05553480414497186,0.2132219609105987,0.07011116059608963,0.03930630266263158,0.2690408542235306,0.08630106699689657,0.17129294784051122,0.7809356190399346,0.06527012474119676,0.35355589599134496,0.21203765590626808,0.15199356397594202,0.11152251157576297,0.05094536866229401,1.3371387773344274,0.0383115677053193,0.038193320817309015,0.028561051321233877,0.26945005366417646,0.18467662300102175,0.3950607601995704,0.2224280942555541,0.03343130975998608,0.05889258449794496,0.27466168062980345,0.027085123400519447,0.029835355497975693,0.05502325714335111,0.100464516473124,0.05038061837549043,0.027172073432011452,0.027360728211808235,0.2425622117771423,0.1768784290505648,0.10286301529523349,0.07979251890236459,0.03079742715223188,0.19495910961533572,0.13518599476150098,0.03922260857572712,0.03127313495876265,0.02644288749463658,0.06724757168042454,0.11067291074198594,0.0807615291945577,0.040756435375105905,0.34975309558815815,0.14388858833176854,0.07998272475231752,0.07063517069741554,0.21843282995495925,0.5088879857097853,0.031944499796652454,0.11161590682915155,0.017578863560746522,0.019102563259956594,0.019204047952758766,0.03377245788390218,0.032635128428763954,0.14158130067319136,0.1459678206178516,0.022454082406004282,0.06839189523179955,0.10684124290441259,0.06851605537227305,0.1043705751129577,0.15732328875456222,0.09655295025089036,0.03507199328991467,0.14678273243786527,0.04100842649229757,0.06200678770497267,0.11690342345648833,0.033981230929753796,0.03005314268638761,0.07512797121489335,1.1765627775557983,0.17840398770501786,0.08232973704079928,0.1722867163996487,0.3241357813808921,0.06546348669746334,0.32823135904346873,0.15721075564210316,0.21381948764576855,0.05109185397850275,0.37838445529197173,0.01820999529117298,0.03988157575707053,0.08552254140419606,0.01788503344841782,0.020211773752186506,0.01679195964741511,0.027882915323693597,0.17422760825272582,0.30416426857517326,0.054563202988542,0.02390367099915797,0.07852446324011877,0.054279377467902706,0.047049202794048374,0.05285727438663763,0.15016863556529836,0.10702919689223957,0.07486758846036835,0.023988804873628033,0.03945800421263303,0.03021527361908068,0.013486385934480474,0.028286458937284976,0.025653290689538706,0.16042774462502604,0.05396267681188731,0.08014434083701621,0.14728309783480406,0.28321648694570545,0.20382108128546536,0.18743941287987975,0.14911549993204815,0.061279976725805534,0.035330960280272466,0.03692166910996768,0.24714437027280822,0.1591685905829925
0.09803591949242046,0.21160493281975654,0.12174514308816718,0.0844292541338081,0.10032672316013358,0.9194089205032812,0.05903742894555453,0.06037972164272563,0.08953283559948642,0.05349257679279126,0.07803721852762385,0.042897921443571775,0.1357453648111736,0.1135830686752682,0.19473831654422094,0.05132627358944766,0.12194811359362456,0.05201941226599645,0.03670764029698039,0.0591360729480797,0.06394328249749849,0.11426268377015934,0.25897490846665766,0.20837100369379025,0.05782091841213376,0.11845572004145372,0.06240597100600456,0.5585856657080447,0.2271101063537621,0.15251451645233702,0.0943741589404697,0.13713774557847885,0.2703496444347125,0.08604622318878301,0.07380422939254261,0.19797977735292038,0.14796427102206636,0.04760970222217767,0.304072260882208,0.157824345655677,0.3125259831964979,0.09996644088534014,0.039498892026701,0.2697736056907886,0.19097876512454315,0.12396432292121018,0.12456508857193606,0.34397905702574816,0.1732223491194651,0.42830607482606387,0.05002161725601817,0.2363978007246763,0.8135504666229721,0.10770602295437916,0.08094397168481245,0.0994299062498626,0.1908210984244874,0.0381102367354254,0.0888450892285216,0.3965892330645011,0.15510426879850797,0.17624928322544264,0.07268470775972312,0.2378398611941711,0.08521709509181054,0.058081830083098814,0.11699920579825981,0.2627536309563557,0.061533783844021646,0.06554513961987463,0.30818289662198506,0.1626630980871305,0.16730362200450324,0.1896608225939378,0.052664847679964655,0.3044485067566831,0.19606923686714067,0.09522507749714991,0.18024607096419648,0.03285159088847537,0.615283865977201,0.10192282192504613,0.03419602806888244,0.02914425260378042,0.21411523699729348,0.15243958928333184,0.3063870518910695,0.169047632978452,0.04019813964409737,0.04767558182819477,0.6079617609027295,0.035326619038283144,0.04314252846226303,0.19253115675545854,0.13433650959763915,0.04961905420939061,0.05180477272949354,0.031828159208736995,0.20231754533310847,0.07728104043264533,0.08038611203717187,0.1699434464626563,0.018608252292205398,0.10413193231487015,0.07627513731408611,0.041144125591802305,0.028780431214055175,0.024323042794440503,0.08369548371412,0.1238299809722067,0.0777052061319898,0.03599509715822983,0.2263021614522117,0.08774378104023874,0.25501059916474605,0.11104913721576935,0.08395689604106375,0.09335101041562528,0.03771576018088977,0.07504521615952534,0.023297954397106063,0.020322203601829333,0.01761165981563555,0.029531119653967642,0.03493035090228308,0.0863552301019312,0.14506048125848806,0.019862118742014864,0.049834174286240304,0.11295892041095693,0.04330401105793527,0.17746920226064522,0.054416641389217486,0.13224325287831235,0.035248082706526,0.048985149830403855,0.038481181675273604,0.1481020551387727,0.11405453018992383,0.026134783799689195,0.02268298878622076,0.13451356663758282,0.6692789522196066,0.20937133857529364,0.07054134617307936,0.12389492832430662,0.17573407013495262,0.06152054024530541,1.0726317985593063,0.061451268191796686,0.07189471231176432,0.046205717866829234,0.351840116716466,0.02413768483953941,0.057166982702646314,0.1484295723483878,0.015692973317672367,0.022421929332385314,0.024575340903350982,0.039248067453884976,0.08259670444651963,0.22112317941095108,0.0683849800283038,0.023169939466968232,0.11377103432298791,0.053156316290847175,0.086500408204577,0.0628222181484346,0.10752205216978926,0.21146615275593797,0.06883227478853196,0.0379409346320943,0.04039909113099871,0.03210664976142176,0.014901963130038302,0.02180756157328616,0.034380510486031184,0.1259805112287949,0.03880073182831413,0.060849656354737956,0.04521014707753198,0.1121147842106322,0.18901587084744034,0.18020196314950593,0.09493212471198258,0.08062842953767961,0.054358472933745704,0.055883112745670066,0.10040173773810575,0.1915921181803124
0.12002470069796575,0.34964957197541574,0.30407915958755827,0.35952998428789695,0.08751931014694829,0.25493117627649664,0.050352499897898105,0.18381005919560855,0.11160065629655405,0.054816735696306684,0.1361283641478564,0.04065203018788574,0.1354828151133934,0.11188133352520863,0.8264018944420674,0.17964596771671743,0.08014696140389313,0.15331179184377486,0.1271757025325517,0.05456347901194308,0.13675091371168607,0.1808109002486142,0.8243644298973062,0.1995180642271704,0.19005459767915497,0.16709140392447414,0.10740068303869901,0.09276617865479542,0.30547415997236216,0.060679426858875,0.09904039217676665,0.08187443697425807,0.1692056647224729,0.048465036142995355,0.1485073894398743,0.20165035927324163,0.1176099392673345,0.04991313137507761,0.13514754633305776,0.21890846769648456,0.09609412085782248,0.08714158825209968,0.03770932273296227,0.1909341917889823,0.07566956870305978,0.1271788219332688,0.09395493615860298,0.10296578480520369,0.15822481425301207,0.26128484987581396,0.10855618158074772,0.13519450870079666,0.7941690774912611,0.18677512602759988,0.2923500859854456,0.07599633191399688,0.10101451313321436,0.0401796831893994,0.07427944046121646,0.1723745449689389,0.13690063244812223,0.5658454874501889,0.03459990255788727,0.16138367749355262,0.1313661750321462,0.051534375597098746,0.03697534676757849,0.2653982554401366,0.14041635487001838,0.026781222161586748,0.1446474506018982,0.11058471553700766,0.05636917265822043,0.4791993386512381,0.04413290139017947,0.13223889071108713,0.18067679745349438,0.09248108357511806,0.13745377655091587,0.05146720880813202,0.8429199626096539,0.04584749402073662,0.06387878603812638,0.055061782680534695,0.09071113621198253,0.3203844672754817,0.22040800439021466,0.16731705269891067,0.07768660460701363,0.04220634057973,0.11295995909463016,0.04413862917783361,0.04865483516007233,0.06301341291817966,0.5546516159027993,0.12039953631177962,0.021917112815338414,0.028348290494915076,0.15107055426856547,0.26813738291984324,0.1510053170861011,0.09419925610465373,0.017178646811496775,0.20715169979629608,0.372440302732354,0.02800628013197109,0.03338238745878948,0.021044101518292797,0.18271432543662253,0.06226595786451357,0.16424741685413324,0.040590023467972226,0.32518442982160173,0.12672629838886812,0.09337229453398527,0.08337210632081844,0.1737021582550757,0.2485714787845266,0.07565195018036992,0.26368625422987957,0.018554306229962916,0.01766158417806789,0.022035915121185416,0.027821230937727665,0.04633563692117579,0.4598888063381712,0.1732050219822047,0.01879924025364049,0.0511218105335219,0.10170315573218172,0.08292669067714867,0.1267319704814344,0.09893562192520339,0.08162591908896448,0.05373239075772271,0.046528034761935934,0.035368687709193276,0.07157826369134773,0.1250437243430694,0.04162128480610781,0.025038021128494792,0.06284598554835495,0.6833715535110585,0.34204797805469134,0.1527255197251906,0.11947071949255103,0.10262925647674406,0.11620901748096708,0.2831767220057244,0.15900955994414917,0.0663367598855843,0.07490970699348777,0.10913799479358084,0.027207182464883635,0.043611656912595935,0.05123047706217142,0.020110695799169038,0.03260507053564047,0.013713632655553865,0.02598801870970177,0.09774751328127886,0.09822685950319357,0.061579120910136696,0.026165679535416892,0.10335426139461977,0.07789735617679532,0.06588864194380327,0.0683073186599862,0.3872032941767531,0.09589462453197159,0.45876417760317345,0.03260946991506725,0.043668492664557725,0.04357401354046381,0.014248522094306588,0.04117026584765719,0.030534148057893402,0.08088925737314719,0.04038639453475785,0.07789113097027249,0.06515968778409217,0.10602151574345273,0.10490910196207953,0.05639862409688062,0.2794986835816862,0.1255998676556049,0.037785754132541476,0.03422846099074308,0.5153505638577246,0.6773642568213647
0.11529816890189976,0.13822495760910128,0.16627824707842884,0.35045339275350385,0.14072558549698966,0.25563351179876387,0.05186733005250855,0.17435364316107171,0.06331443813737113,0.09797409330881209,0.08027260529453369,0.08344946348901973,0.10469988515014997,0.0627424243291603,0.13495761278560486,0.27500294150756205,0.06707742568504718,0.18254116108389098,0.09298491044060996,0.07097956522074873,0.15965640203677184,0.07599379452121392,0.8036624997269148,0.14149773130531235,0.1434105850805492,0.19207876215999375,0.0645319912144132,0.21948761933596267,0.2252636052058871,0.23102876309972153,0.10148255054515992,0.1484063299681283,0.2871057996802302,0.07543640225127603,0.07788964164934399,0.26925392471440474,0.1323870318113293,0.11618307826360633,0.1778940019657322,0.10837541539686196,0.15709805767543558,0.07478946338890163,0.029316218637525513,0.1321853091687563,0.0652630361994415,0.28304660739613013,0.2262331911901151,0.07691956000298256,0.09428572002844895,0.15221738203945742,0.09796282095361045,0.09404687868904979,0.7428610427477259,0.09097436246563528,0.14529240380897498,0.18301632893995862,0.09843644962291423,0.038945921425203145,0.20743549816548332,0.1026208250130501,0.07610957442445715,0.1440443410009674,0.045921222065030846,0.16048251193257435,0.08220841939306092,0.07645784670693205,0.0814693911135272,0.4259458470793007,0.08448049371641125,0.03446085766228447,0.31478742018736766,0.1529722397795024,0.06969960414417464,0.7103608354597455,0.03547712653831526,0.13043322744362898,0.18205258272482852,0.19424270922396344,0.0682846631848041,0.11259745181502949,0.7533562226939308,0.046449740655159645,0.02692096487462055,0.026464172383501065,0.21655378290619437,0.2324895305053853,0.2784599982004063,0.1345046419305169,0.053139563891748724,0.05608080006869033,0.08086339005331902,0.04030165234642398,0.0571646294342467,0.07732207395305192,0.2028708775576363,0.043051383858794603,0.026079890285326,0.023930644923527592,0.16245919355896002,0.11867158703636438,0.07083489044240385,0.0768607583512811,0.019358707883633686,0.1590850668136951,0.28521718143948777,0.03459631597985745,0.032330033998109096,0.02737578042874757,0.1283506496659917,0.11101550149690391,0.2418538020027111,0.03636646028625229,0.4149532021498187,0.10675150683868385,0.09147172748845118,0.10985942726844754,0.16249422086349952,0.17205534146701182,0.04381469840801631,0.23959400331101746,0.02516176104384737,0.016676344359567004,0.020720820983873303,0.024313277339949996,0.030227891553558157,0.2843726266397291,0.17777465452508576,0.018754750403865268,0.051069578416187235,0.11109612372182154,0.0638738538083035,0.10128432728914957,0.17517113428631198,0.12163704848150943,0.046263422527024985,0.06477624025819097,0.02977781451088569,0.15087991498184858,0.07815101269269184,0.028622466712984903,0.029949971067255842,0.07872041990826384,0.8056241919982522,0.19836835656341306,0.08361474721397708,0.13607378858499974,0.2338874455241607,0.05634088288706401,0.3145092106124136,0.12467481891893714,0.10334707230889081,0.05552443272256845,0.16815303997781,0.022271727861425637,0.06024785458419872,0.0758405721786099,0.0166660497419024,0.022585226706461403,0.017936993946316954,0.030568320356521857,0.08794881473346562,0.1318082021584935,0.06362814747486985,0.03146901253399739,0.10934220138181627,0.08535404294102203,0.05924768522080489,0.08095224755889832,0.09397406524138431,0.0650398360717145,0.19972706636956183,0.028782489595154667,0.036943856335538254,0.03601429623819219,0.0130662291580206,0.025816870543155804,0.03352427414516283,0.08951275710562946,0.06145682519970625,0.10804324615481481,0.1510605768020132,0.1145581087238616,0.3202388119312263,0.10957719037804625,0.19904960693692053,0.1734861570093385,0.035710306645183536,0.05817493552013457,0.22580684778751803,0.32919105800294896
0.22778641454925613,0.4751727134671189,0.12708016400691458,0.12211434699334661,0.09850678707668846,0.6221778974125044,0.061190085309445204,0.1324905423506435,0.0751870497959758,0.041864537736256806,0.08583405391404744,0.03669369147408737,0.4753654856335541,0.11510111804977598,0.29620462859050284,0.10537963092038843,0.03928436441332425,0.07789214560082601,0.06559082075656068,0.07408291782518468,0.07561294662015357,0.13177923439086692,0.4282174442626495,0.3450050718129485,0.06257466190588129,0.1962045821657142,0.056387200901067615,0.30903495752586163,0.20533693849705414,0.05892251700118876,0.04889455938904534,0.08611897424297935,0.09504206323967912,0.03937361546021296,0.10629323491100671,0.1538794621805074,0.47122193388404293,0.09412256709443763,0.5629181321444126,0.12296777703592479,0.1758501726201146,0.20301479706374165,0.05709747650841695,0.1394917358513894,0.07197260586479189,0.46799619179519225,0.3016692674662526,0.37283678368711154,0.1815115614684654,0.11250748017884042,0.1349027145567892,0.45402304246467057,0.351075606771842,0.25121496334209553,0.11441107613915948,0.23744145026065827,0.2215472173621411,0.04562556874511667,0.09898944357927854,0.06564147662210804,0.059806677336657614,0.2490653946415712,0.02725854577876791,0.6638047195678948,0.20664192199486567,0.09179189121588924,0.0385671427120999,0.33521436425898354,0.08518510671660591,0.04031294094991332,0.1521871559894036,0.10605810964943974,0.042110074459382175,0.22473467454638177,0.02971761481255002,0.08359819387194418,0.10623704031024003,0.16645450093065425,0.1564864337399673,0.03517118757460019,0.25398729193946173,0.08331453260828962,0.04115980913350759,0.024583302251552756,0.2383112166994254,0.1391596555924701,0.30803070035051117,0.14348788830993028,0.0458633692489477,0.048709401419736495,0.2901962280590878,0.04333599123745733,0.045137218130555726,0.17872802803025212,0.2845707450714504,0.12532291856517036,0.04463174555974126,0.029524220758458834,0.10503249885707157,0.10643083613846249,0.25012152008483834,0.1213931315940552,0.023585249699363996,0.14862676124435487,0.14974766636038037,0.05503532242689897,0.03631269471655832,0.028429221542105254,0.08509581615821392,0.1439182027383536,0.06009276044663919,0.021443810004741506,0.13631012314354887,0.07709501039985772,0.08166068413543599,0.12081044619425468,0.13858135353199288,0.22083735963379109,0.06288494746801784,0.1524941917510517,0.019001396595698272,0.021526322709551987,0.02360734805806473,0.026618474227941002,0.03850664676954217,0.1041945824820147,0.07043437961419044,0.016213192740271186,0.05078466728170342,0.08466015001872175,0.041964762205008645,0.14756084229179756,0.07308745436794392,0.21730112417387112,0.045278217918329214,0.04529152983640651,0.06334542091492251,0.25866917552945007,0.08004026478841382,0.03584248468801961,0.03355387176001532,0.1303750835811769,0.2521557724019997,0.11607398291645082,0.1001340164416376,0.14407019821128647,0.17730463136088234,0.061596080888286,0.9015850926063766,0.11519939907409042,0.18340924086505261,0.11491530192525172,0.2983813214826287,0.013884149356052618,0.028756530678632954,0.05548944257357931,0.016324941446955232,0.019133916841931862,0.015437107379698096,0.026058373742190784,0.11750878953195097,0.1852168587115856,0.08521891848542618,0.025014158304361628,0.06773916957631972,0.04217680030648877,0.07117357935959265,0.04586800598899215,0.159605849149491,0.28734082076169354,0.19756900682773554,0.020072299781411097,0.04924636384812082,0.023893850006074874,0.012012768973924288,0.02242472840724397,0.02331299079002389,0.10886327710954824,0.062922945449693,0.10289578782314136,0.10546292824531801,0.14152166505638197,0.17007870855513596,0.22622516539807425,0.08825202285868448,0.09664792178423709,0.03448824115662274,0.07008472420640115,0.3414314146835526,0.2109536977719988
0.13093155005343904,0.2218634262332659,0.24981555938630481,0.21065738093317904,0.10189743833288827,0.40500913344742123,0.045398275301434726,0.15437942308519126,0.0628760148254493,0.05223878025533298,0.10906190128977152,0.049086516950545375,0.33423745831136953,0.13557581315719308,0.3477137297334524,0.24784606978034593,0.053071264986072876,0.09083612123045307,0.13121499269371972,0.041175089265466924,0.05700074315790684,0.15769150386883748,0.593633216100737,0.2809756310453904,0.08734037321257397,0.26437814878069765,0.08590900384952493,0.22637951325745487,0.08082306041019748,0.1853041348319737,0.0645198881321762,0.12580677870069845,0.3871906688576667,0.05926376367007667,0.06553131622366923,0.09859600530897662,0.11444308130450452,0.06008018806403632,0.22117237521169583,0.24036525030051922,0.17009876579194363,0.08250555234761461,0.04057963865455855,0.09544063254013631,0.06785507101280742,0.1543965539704308,0.09466543512822548,0.1804480512655444,0.2054719802491816,0.2508598253910017,0.17011158595692852,0.34039796269524075,0.4234195042563921,0.14217104044464582,0.07838724053415744,0.16148139345558468,0.10485762149464337,0.03406173731632638,0.13664502715064647,0.08248892278008742,0.16137349683981614,0.1569863025878156,0.05742054911896148,0.15380991950463235,0.09301975811865797,0.060868546513377156,0.08606835214532206,0.10820951460350764,0.058674426396809025,0.027942891118476226,0.22759671146387953,0.09065249019427682,0.11338992464457828,0.4208662315950082,0.041159789870997866,0.10914457158043307,0.05451146881124623,0.13614306490979738,0.052978720563548305,0.0389967680253998,0.36797665457171286,0.05566657691320417,0.02686481584746202,0.05514607271083833,0.1215946575451631,0.10955499098619184,0.10894082632082225,0.07287879360083452,0.04186658237877186,0.07233761490188287,0.15041660422560324,0.04536472477338375,0.03991768688299143,0.08042314760113634,0.1268935716852041,0.06814195333986015,0.0301757143150548,0.03506754660553467,0.0675791103148909,0.2551300429951169,0.12290559666747745,0.06013552240740213,0.017398667613750664,0.058461097429031224,0.1522206125277835,0.05054485525406228,0.033421470985086944,0.02609707721803184,0.11395772626332824,0.2223248511776664,0.08226545982396043,0.03450973636668315,0.1162865028952177,0.10792037744489144,0.08209441734849601,0.08913062850988641,0.09154298659311652,0.146915750263947,0.08192864436546476,0.262499050782906,0.01917240602506451,0.02246811150427519,0.021560326230626706,0.025085089860569218,0.035550623239501686,0.12539993478737949,0.09711703085453456,0.02125487933091734,0.04547819730770675,0.09640472683343725,0.07939433030546142,0.06240365430650434,0.14915537470848453,0.1613219291126451,0.08463124117367538,0.07577668977079408,0.042789189852081355,0.12741270813483838,0.10792344065559371,0.04407564721549896,0.0248969573753813,0.10083043850445494,0.6869201022484277,0.3814564739765417,0.08668805905959433,0.05081775265724379,0.1402892128161436,0.08432920243596616,0.17605655943393256,0.0838023804635445,0.11266460554218766,0.13486312317597288,0.2793677258683143,0.016934414729750377,0.0314465565081437,0.13356448822466632,0.020968087775787257,0.019721236401043223,0.013031371601447298,0.03140892593134768,0.1882920686800003,0.15066894800000163,0.11360218424391264,0.029985970193664988,0.056730505352531185,0.047259347685644715,0.054683061248654206,0.05168271159923291,0.24470423610785444,0.16288298173145505,0.16760177362095405,0.022561349981310614,0.0309815190345901,0.0384852382568094,0.01661306191195371,0.025170563073939018,0.03605465560826654,0.16658807407412377,0.0433587312953739,0.10868375237314473,0.1790726354935312,0.15210683201254385,0.4143191623404685,0.10142662462808695,0.27373071019184797,0.06930541177576983,0.033792411652027655,0.04311475094225157,0.46095639831802704,0.23177994074566202
0.11704713348400317,0.10871078560398377,0.10296313377835573,0.3555457831477201,0.061671908129279404,0.13286318315562032,0.072092442888933,0.2199191277004207,0.07012339845971363,0.08924229500585147,0.08313041857265736,0.0405313862291212,0.4914668179270056,0.07268852668207822,0.18187176786114206,0.25322012106836655,0.1209197379903316,0.07863961811902202,0.09800187108556568,0.05127243988310638,0.09174641686228757,0.20493961259175433,0.6782607620920013,0.11210417804119405,0.0700880046150526,0.2968556915365196,0.051737364575795204,0.3072571298954207,0.22623380568068058,0.16837296945868896,0.11000685773071757,0.10224703866224101,0.10092469490504916,0.03527509370804212,0.07209307177085465,0.08429695386709136,0.1764092032893217,0.07043121888997034,0.07950872573818106,0.10234080490677036,0.07156963403323074,0.269886029249382,0.024234572682719394,0.0588322213072334,0.11463823594824202,0.2558648914788984,0.11593888744855944,0.10478857739982689,0.2008255481694775,0.15276312056565158,0.21982383537668485,0.13545742946956363,0.2951774655471088,0.070455566123004,0.1340755363398817,0.15975548103750148,0.19387273419958684,0.03349894415863753,0.2023006719992164,0.14739750802310297,0.08003602647996204,0.4561363519886431,0.02842726913777721,0.18541954041995432,0.08076338206269068,0.06225845167647255,0.06655531666254652,0.11011352426364217,0.11287711987667155,0.026804950996111437,0.17449299863642995,0.09819222766559213,0.07683649688709938,0.10062573521937919,0.04096092900179785,0.07971912262960895,0.08630021044242743,0.08471023409900945,0.053776535558146224,0.04074347827431806,0.6434387246490453,0.04241888728748311,0.04316560534447251,0.02509187108021473,0.33773017823221646,0.23149934666396774,0.09985013774620922,0.06389432696954012,0.0334701399358426,0.05799818273982227,0.12655613847557606,0.051891342119841796,0.03609646886620068,0.17892918927536391,0.11849968738086437,0.10632620720565383,0.02329355747776137,0.04249513101672184,0.17210201090299912,0.08683688862994286,0.22058701494987298,0.0665393402894024,0.01645728188837164,0.13976116441367942,0.08637766295216927,0.029806397513348588,0.025904717261762383,0.04214949975637292,0.09508044986298683,0.08553758856251537,0.1901371531913429,0.054516186453399174,0.3191931186331077,0.25659400857446857,0.0748386342133626,0.05849997682652745,0.051438087338543756,0.21303492203999028,0.03430720579366392,0.08051234490573601,0.020269754118913547,0.01740284909781599,0.020776270325971114,0.030966672189726742,0.0584896417584065,0.22027582821047256,0.35796890685894356,0.02063959884574524,0.07210103699487991,0.1907642583520431,0.06218996814496766,0.09768852812496401,0.13929863121077707,0.0591369905186485,0.054558267966236466,0.05100098202706678,0.055752311008345996,0.10435423643628339,0.0886363291042255,0.03849573208868964,0.021142530186456697,0.06316723211399539,0.6898721064256889,0.10484588594713372,0.05876395902699847,0.04777982536785803,0.11988414996973223,0.06322912512330069,0.15708358237596043,0.08802060101776102,0.15243571941570708,0.06742516933678303,0.12074125202118101,0.020404497587960653,0.05422218250642389,0.12402454416156274,0.02604250819142351,0.01936478829442418,0.015599945358891832,0.048184964993247904,0.21859890522357928,0.07668268663889959,0.07119445080375643,0.026546663293368813,0.09300025634691002,0.04178593843818638,0.040912656103997365,0.11037539338808368,0.22523699364207916,0.20969589138367842,0.24804670990305044,0.023757800952940385,0.06840424774578485,0.037003029102974955,0.018095753544349058,0.023209174542093126,0.03675311072243659,0.2827385760918275,0.1188668810788093,0.0666092633417504,0.149088298664694,0.08653003398418496,0.19593017518721548,0.06978882399074123,0.15696794839207243,0.2366945936364166,0.04784919439982865,0.07952589989306141,0.6398348365051044,0.2490161013911162
6.91479380770883e-05,7.225224456420388e-05,0.00014959652826933696,4.047047133865415e-05,2.2119411469300065e-05,7.411876763881156e-05,1.9878135372103587e-05,1.0943883079217397e-05,1.8425571321549244e-05,5.6630289113931734e-05,2.8797955817080173e-05,7.770481914869938e-06,1.7754792848600944e-05,5.382048325427303e-05,0.00011579419463525072,1.637307806808538e-05,2.60573527146054e-05,1.1682367354430908e-05,1.0134981955665472e-05,3.903668094351358e-05,6.883588324468056e-05,2.698397047542696e-05,0.00010981196363723962,3.54774824851854e-05,1.0702706199047201e-05,1.7568137966033436e-05,2.419398333522196e-05,6.208076944850116e-05,2.1160356725248926e-05,1.8639395278862057e-05,1.5456504603177113e-05,1.1910114110606863e-05,1.1111541427349646e-05,4.14402085109143e-06,2.0004197112007638e-05,7.289435883050326e-05,7.379334812299688e-06,8.321211001069163e-06,1.5020003100719358e-05,2.220508803699717e-05,1.784184131210231e-05,1.2197480860026458e-05,1.0822868028268727e-05,1.596188561748173e-05,6.510746438946449e-05,1.743596485115687e-05,7.701998436139756e-06,1.5040854273666943e-05,1.6609242753595054e-05,4.9888579145933265e-05,8.485486595490043e-06,2.408980049386607e-05,2.7351664371459322e-05,4.0175493696449886e-05,8.623358646894395e-05,1.4549325450624284e-05,1.14368267512168e-05,5.815820394482437e-06,9.784049181663672e-06,1.7525924182826417e-05,1.9307877947384233e-05,1.7380498620141673e-05,8.104379626543206e-06,1.7463403696989586e-05,4.1081183312997616e-05,7.476672115837845e-05,8.228188474745071e-06,1.5173234872922886e-05,8.004544095443603e-06,1.26901175791433e-05,1.3782520672013577e-05,1.8475671750995763e-05,2.1063916853219317e-05,1.6997156108209933e-05,9.980709858496283e-06,4.260898985015185e-05,2.0398414748453175e-05,7.278086511986888e-05,1.5468835097757935e-05,1.5296618390833546e-05,3.480103540085997e-05,1.3156153553041241e-05,2.0865130372892665e-05,2.0747627776860162e-05,1.2372495661273472e-05,4.102381894154664e-05,1.6688593618746627e-05,2.171522086917907e-05,1.3477365967535417e-05,9.703973642009739e-06,8.012070511758595e-05,6.4514090600296114e-06,4.029857802500486e-06,7.57467466999401e-06,2.2239208719149943e-05,1.2632135288287379e-05,1.214276012010644e-05,1.1837359070105345e-05,1.3031821198654846e-05,3.7818566452989816e-05,1.2390919058849437e-05,1.422884856060493e-05,6.812679974236873e-06,3.6635961413977025e-05,0.00010850771603586483,3.84375677624125e-06,3.785191006912621e-06,1.0483810197182172e-05,1.1693400324544056e-05,1.730979473053641e-05,9.652022715393316e-06,2.0795288517526747e-05,1.0846972580273566e-05,1.3321143058687287e-05,1.8229851434542666e-05,8.596987538321971e-06,1.2099784530712683e-05,2.6201187630718134e-05,2.7660217669826763e-05,6.066731612689575e-05,1.9233297341974916e-06,2.6719919751094652e-06,9.610231588725862e-06,9.006275207492796e-06,5.07084598050946e-06,2.1727045788073142e-05,1.2362710769750822e-05,8.597506136589662e-06,1.742139280153434e-05,1.2060356808905306e-05,1.9942092024362746e-05,8.514108452646178e-06,8.618835227296365e-06,1.6182142148833603e-05,1.3229553490678052e-05,5.0207949767102715e-05,1.95892372814205e-05,2.434964226050744e-05,2.9123624179879558e-05,2.944004699115627e-05,1.8124886161283183e-05,1.662576788895073e-05,2.3513869079481778e-05,8.884018023627153e-06,1.0266351492220535e-05,7.516332052718893e-06,2.0273818460875263e-05,1.9787047652927223e-05,2.5922109051866248e-05,9.959204927607724e-06,1.0820429723496538e-05,2.2197169593246274e-05,6.341204547916335e-05,6.901771225785477e-06,7.676175069243757e-06,1.6192818018585124e-05,3.172849387316898e-06,1.8178316168442766e-05,4.664317597863922e-06,7.551731176791456e-06,1.1566132169559176e-05,1.7714200819006857e-05,7.771563420288337e-06,8.129186701003976e-06,1.4614688339401656e-05,2.4189562862063387e-05,1.1110608271363652e-05,1.1704015815596491e-05,3.4255452702352015e-05,2.2035254182615014e-05,9.897803276567102e-05,5.9181975383775655e-06,6.838409576082595e-06,1.2553772068133685e-05,1.4853786585472167e-05,1.3887901724087318e-05,2.0630217704620174e-05,2.6429843943005985e-05,7.634971968651154e-06,1.5043829383290082e-05,2.7351503348368834e-05,1.7128857412388606e-05,1.4004145908399615e-05,3.623806795209408e-05,3.698904959649757e-05,1.5779183192869913e-05,1.3415431009286681e-05,2.6774508447369227e-05,0.00017822800525916967,0.00018607235024284665
